WT 0.1M sucrose	
4/4/2023 5:34 PM	
Wavelength (nm)	10mm Absorbance
//WLCalib: Shift 	0.20333
//WLCalib: 261S 	-0.45
//WLCalib: 362S 	-0.7
//WLCalib: 484S 	-0.73
//WLCalib: 529S 	-0.44
//WLCalib: 823S 	-0.81
//QSpecEnd: 	
190	0.599
190.5	0.542
191	0.51
191.5	0.456
192	0.421
192.5	0.394
193	0.362
193.5	0.33
194	0.277
194.5	0.246
195	0.22
195.5	0.211
196	0.209
196.5	0.205
197	0.226
197.5	0.229
198	0.227
198.5	0.229
199	0.226
199.5	0.228
200	0.215
200.5	0.207
201	0.19
201.5	0.172
202	0.153
202.5	0.142
203	0.137
203.5	0.149
204	0.154
204.5	0.158
205	0.147
205.5	0.148
206	0.141
206.5	0.127
207	0.126
207.5	0.131
208	0.128
208.5	0.129
209	0.13
209.5	0.128
210	0.123
210.5	0.126
211	0.123
211.5	0.118
212	0.114
212.5	0.117
213	0.123
213.5	0.121
214	0.118
214.5	0.123
215	0.111
215.5	0.107
216	0.105
216.5	0.096
217	0.089
217.5	0.092
218	0.091
218.5	0.086
219	0.083
219.5	0.078
220	0.07
220.5	0.071
221	0.064
221.5	0.054
222	0.05
222.5	0.05
223	0.047
223.5	0.05
224	0.054
224.5	0.054
225	0.058
225.5	0.063
226	0.057
226.5	0.054
227	0.052
227.5	0.048
228	0.04
228.5	0.036
229	0.034
229.5	0.025
230	0.024
230.5	0.023
231	0.023
231.5	0.023
232	0.021
232.5	0.026
233	0.023
233.5	0.019
234	0.019
234.5	0.018
235	0.022
235.5	0.022
236	0.024
236.5	0.023
237	0.026
237.5	0.028
238	0.023
238.5	0.019
239	0.02
239.5	0.021
240	0.023
240.5	0.018
241	0.015
241.5	0.016
242	0.016
242.5	0.015
243	0.014
243.5	0.012
244	0.014
244.5	0.016
245	0.02
245.5	0.018
246	0.019
246.5	0.022
247	0.023
247.5	0.027
248	0.025
248.5	0.022
249	0.021
249.5	0.025
250	0.025
250.5	0.021
251	0.02
251.5	0.017
252	0.016
252.5	0.014
253	0.014
253.5	0.013
254	0.016
254.5	0.02
255	0.018
255.5	0.019
256	0.02
256.5	0.021
257	0.021
257.5	0.021
258	0.023
258.5	0.026
259	0.027
259.5	0.023
260	0.02
260.5	0.018
261	0.017
261.5	0.018
262	0.015
262.5	0.018
263	0.02
263.5	0.022
264	0.02
264.5	0.017
265	0.017
265.5	0.015
266	0.015
266.5	0.01
267	0.006
267.5	0.012
268	0.015
268.5	0.019
269	0.02
269.5	0.023
270	0.024
270.5	0.023
271	0.022
271.5	0.014
272	0.012
272.5	0.012
273	0.016
273.5	0.019
274	0.017
274.5	0.014
275	0.012
275.5	0.012
276	0.013
276.5	0.01
277	0.01
277.5	0.013
278	0.015
278.5	0.015
279	0.013
279.5	0.012
280	0.014
280.5	0.015
281	0.013
281.5	0.014
282	0.014
282.5	0.017
283	0.018
283.5	0.018
284	0.022
284.5	0.022
285	0.025
285.5	0.025
286	0.021
286.5	0.02
287	0.015
287.5	0.012
288	0.013
288.5	0.012
289	0.015
289.5	0.014
290	0.02
290.5	0.02
291	0.019
291.5	0.018
292	0.014
292.5	0.014
293	0.014
293.5	0.01
294	0.01
294.5	0.012
295	0.014
295.5	0.011
296	0.012
296.5	0.013
297	0.015
297.5	0.017
298	0.017
298.5	0.013
299	0.015
299.5	0.014
300	0.012
300.5	0.011
301	0.013
301.5	0.014
302	0.015
302.5	0.014
303	0.014
303.5	0.011
304	0.011
304.5	0.012
305	0.015
305.5	0.014
306	0.014
306.5	0.014
307	0.014
307.5	0.014
308	0.013
308.5	0.012
309	0.014
309.5	0.015
310	0.017
310.5	0.012
311	0.013
311.5	0.014
312	0.012
312.5	0.01
313	0.011
313.5	0.011
314	0.012
314.5	0.012
315	0.016
315.5	0.017
316	0.02
316.5	0.02
317	0.019
317.5	0.016
318	0.013
318.5	0.011
319	0.012
319.5	0.013
320	0.014
320.5	0.013
321	0.014
321.5	0.018
322	0.018
322.5	0.012
323	0.01
323.5	0.009
324	0.009
324.5	0.006
325	0.005
325.5	0.007
326	0.009
326.5	0.012
327	0.013
327.5	0.013
328	0.017
328.5	0.02
329	0.023
329.5	0.023
330	0.023
330.5	0.024
331	0.02
331.5	0.019
332	0.017
332.5	0.014
333	0.013
333.5	0.013
334	0.009
334.5	0.006
335	0.007
335.5	0.008
336	0.008
336.5	0.011
337	0.012
337.5	0.016
338	0.019
338.5	0.019
339	0.021
339.5	0.021
340	0.024
340.5	0.019
341	0.017
341.5	0.013
342	0.01
342.5	0.012
343	0.012
343.5	0.011
344	0.012
344.5	0.013
345	0.013
345.5	0.01
346	0.012
346.5	0.013
347	0.014
347.5	0.015
348	0.017
348.5	0.016
349	0.017
349.5	0.015
350	0.01
350.5	0.008
351	0.006
351.5	0.006
352	0.006
352.5	0.007
353	0.01
353.5	0.011
354	0.015
354.5	0.014
355	0.015
355.5	0.013
356	0.011
356.5	0.01
357	0.01
357.5	0.009
358	0.008
358.5	0.009
359	0.009
359.5	0.009
360	0.011
360.5	0.012
361	0.014
361.5	0.016
362	0.016
362.5	0.015
363	0.013
363.5	0.01
364	0.007
364.5	0.004
365	0.003
365.5	0.006
366	0.01
366.5	0.014
367	0.018
367.5	0.015
368	0.013
368.5	0.01
369	0.009
369.5	0.006
370	0.004
370.5	0.006
371	0.009
371.5	0.013
372	0.013
372.5	0.006
373	0.002
373.5	0.001
374	0.002
374.5	0.001
375	0.003
375.5	0.007
376	0.012
376.5	0.016
377	0.014
377.5	0.013
378	0.012
378.5	0.01
379	0.007
379.5	0.004
380	0.004
380.5	0.003
381	0.003
381.5	0.006
382	0.007
382.5	0.013
383	0.016
383.5	0.018
384	0.017
384.5	0.014
385	0.011
385.5	0.007
386	0.006
386.5	0.009
387	0.008
387.5	0.013
388	0.014
388.5	0.017
389	0.014
389.5	0.012
390	0.01
390.5	0.009
391	0.006
391.5	0.007
392	0.003
392.5	0.001
393	0.001
393.5	0.003
394	0.005
394.5	0.009
395	0.013
395.5	0.017
396	0.017
396.5	0.016
397	0.012
397.5	0.011
398	0.009
398.5	0.008
399	0.009
399.5	0.01
400	0.012
400.5	0.013
401	0.011
401.5	0.01
402	0.01
402.5	0.009
403	0.007
403.5	0.003
404	0.002
404.5	0.003
405	0.005
405.5	0.008
406	0.01
406.5	0.012
407	0.011
407.5	0.01
408	0.01
408.5	0.006
409	0.005
409.5	0.003
410	0.002
410.5	0.004
411	0.01
411.5	0.012
412	0.011
412.5	0.013
413	0.014
413.5	0.014
414	0.012
414.5	0.01
415	0.01
415.5	0.013
416	0.017
416.5	0.018
417	0.014
417.5	0.012
418	0.011
418.5	0.009
419	0.007
419.5	0.006
420	0.004
420.5	0.004
421	0.006
421.5	0.005
422	0.003
422.5	0.005
423	0.006
423.5	0.006
424	0.007
424.5	0.007
425	0.005
425.5	0.004
426	0.004
426.5	0.004
427	0.003
427.5	0.004
428	0.002
428.5	0.003
429	0.006
429.5	0.007
430	0.007
430.5	0.005
431	0.006
431.5	0.007
432	0.007
432.5	0.008
433	0.006
433.5	0.008
434	0.007
434.5	0.006
435	0.005
435.5	0.001
436	0.003
436.5	0.002
437	0.003
437.5	0.006
438	0.007
438.5	0.01
439	0.012
439.5	0.011
440	0.01
440.5	0.008
441	0.008
441.5	0.01
442	0.008
442.5	0.008
443	0.009
443.5	0.009
444	0.01
444.5	0.008
445	0.004
445.5	0.004
446	0.004
446.5	0.005
447	0.002
447.5	-0.001
448	-0.004
448.5	-0.005
449	-0.003
449.5	0.001
450	0.002
450.5	0.005
451	0.008
451.5	0.008
452	0.009
452.5	0.007
453	0.007
453.5	0.006
454	0.005
454.5	0.004
455	0.003
455.5	0.003
456	0.003
456.5	0.003
457	0.004
457.5	0.004
458	0.003
458.5	0.001
459	0
459.5	-0.001
460	0
460.5	0.002
461	0.003
461.5	0.005
462	0.006
462.5	0.008
463	0.009
463.5	0.009
464	0.008
464.5	0.009
465	0.009
465.5	0.009
466	0.008
466.5	0.007
467	0.007
467.5	0.008
468	0.006
468.5	0.002
469	0.001
469.5	0.003
470	0.003
470.5	0.005
471	0.006
471.5	0.007
472	0.007
472.5	0.006
473	0.004
473.5	0.005
474	0.006
474.5	0.008
475	0.008
475.5	0.011
476	0.01
476.5	0.008
477	0.006
477.5	0.004
478	0.003
478.5	0.002
479	0.001
479.5	0.002
480	0.003
480.5	0.004
481	0.007
481.5	0.008
482	0.01
482.5	0.011
483	0.011
483.5	0.012
484	0.01
484.5	0.007
485	0.004
485.5	0.002
486	0.001
486.5	0
487	0
487.5	0
488	0.003
488.5	0.006
489	0.007
489.5	0.008
490	0.008
490.5	0.009
491	0.007
491.5	0.007
492	0.002
492.5	0.001
493	0.002
493.5	0.001
494	0.001
494.5	0.001
495	0.003
495.5	0.006
496	0.008
496.5	0.008
497	0.007
497.5	0.007
498	0.007
498.5	0.007
499	0.005
499.5	0.004
500	0.002
500.5	0.002
501	0.002
501.5	0.003
502	0.005
502.5	0.005
503	0.007
503.5	0.007
504	0.003
504.5	0.001
505	-0.002
505.5	-0.004
506	0
506.5	0.002
507	0.002
507.5	0
508	0.001
508.5	-0.002
509	-0.003
509.5	-0.005
510	-0.004
510.5	-0.002
511	0.004
511.5	0.006
512	0.006
512.5	0.006
513	0.006
513.5	0.001
514	-0.003
514.5	-0.008
515	-0.011
515.5	-0.013
516	-0.013
516.5	-0.01
517	-0.006
517.5	-0.002
518	-0.004
518.5	-0.003
519	-0.002
519.5	-0.003
520	-0.002
520.5	0
521	0.001
521.5	0.004
522	0.004
522.5	0.006
523	0.004
523.5	0.002
524	0.003
524.5	0.002
525	0.002
525.5	0.002
526	0.001
526.5	-0.001
527	-0.002
527.5	-0.002
528	-0.003
528.5	-0.004
529	-0.003
529.5	0.001
530	0.001
530.5	0.002
531	0.004
531.5	0.005
532	0.004
532.5	0.001
533	0.001
533.5	-0.005
534	-0.01
534.5	-0.01
535	-0.011
535.5	-0.009
536	-0.003
536.5	0.002
537	0.005
537.5	0.006
538	0.009
538.5	0.008
539	0.009
539.5	0.008
540	0.007
540.5	0.007
541	0.007
541.5	0.009
542	0.005
542.5	0.003
543	0.005
543.5	0.006
544	0.008
544.5	0.004
545	0.001
545.5	0.003
546	0.003
546.5	0.004
547	0.003
547.5	0.005
548	0.01
548.5	0.007
549	0.004
549.5	0.003
550	-0.001
550.5	-0.001
551	-0.001
551.5	-0.004
552	-0.005
552.5	-0.002
553	-0.003
553.5	-0.003
554	-0.002
554.5	0.001
555	0.002
555.5	-0.001
556	-0.004
556.5	-0.005
557	-0.003
557.5	-0.002
558	0.001
558.5	0.007
559	0.013
559.5	0.012
560	0.016
560.5	0.012
561	0.009
561.5	0.005
562	0.004
562.5	0
563	0.002
563.5	0.002
564	0.002
564.5	0
565	0.004
565.5	0.004
566	0.003
566.5	0.002
567	0.003
567.5	0.001
568	0
568.5	0
569	-0.001
569.5	-0.003
570	-0.003
570.5	-0.005
571	-0.007
571.5	-0.006
572	-0.004
572.5	-0.001
573	0.003
573.5	0.009
574	0.009
574.5	0.009
575	0.008
575.5	0.005
576	0.001
576.5	0.002
577	0.004
577.5	0.003
578	0
578.5	0
579	-0.006
579.5	-0.004
580	-0.004
580.5	-0.006
581	-0.005
581.5	-0.002
582	-0.002
582.5	-0.004
583	-0.005
583.5	-0.007
584	-0.005
584.5	-0.002
585	0
585.5	0
586	0
586.5	-0.003
587	-0.008
587.5	-0.007
588	-0.008
588.5	-0.009
589	-0.009
589.5	-0.006
590	-0.003
590.5	0.001
591	0.004
591.5	0.002
592	-0.002
592.5	0.001
593	-0.001
593.5	-0.003
594	-0.007
594.5	-0.008
595	-0.006
595.5	-0.004
596	-0.003
596.5	-0.002
597	-0.001
597.5	0.003
598	0.003
598.5	0.005
599	0.009
599.5	0.01
600	0.01
600.5	0.008
601	0.003
601.5	0
602	-0.001
602.5	-0.001
603	-0.007
603.5	-0.012
604	-0.01
604.5	-0.01
605	-0.011
605.5	-0.008
606	-0.006
606.5	-0.001
607	0.006
607.5	0.011
608	0.013
608.5	0.011
609	0.013
609.5	0.012
610	0.009
610.5	0.009
611	0.009
611.5	0.006
612	0.007
612.5	0.007
613	0.007
613.5	0.004
614	0.004
614.5	0.004
615	0.001
615.5	0.005
616	0.003
616.5	0.003
617	0.003
617.5	0.003
618	0.003
618.5	0.001
619	-0.002
619.5	-0.003
620	-0.008
620.5	-0.007
621	-0.008
621.5	-0.003
622	-0.002
622.5	0.005
623	0.004
623.5	0.002
624	-0.003
624.5	-0.007
625	-0.01
625.5	-0.012
626	-0.01
626.5	-0.006
627	-0.005
627.5	-0.003
628	-0.003
628.5	-0.004
629	-0.003
629.5	-0.005
630	-0.004
630.5	0
631	0
631.5	0.005
632	0.008
632.5	0.007
633	0.009
633.5	0.009
634	0.007
634.5	0.002
635	-0.004
635.5	-0.005
636	-0.009
636.5	-0.008
637	-0.007
637.5	-0.007
638	-0.007
638.5	-0.003
639	-0.004
639.5	-0.002
640	-0.004
640.5	-0.004
641	-0.003
641.5	-0.005
642	-0.005
642.5	-0.007
643	-0.005
643.5	-0.001
644	-0.003
644.5	0.001
645	0.002
645.5	-0.004
646	-0.007
646.5	-0.014
647	-0.015
647.5	-0.019
648	-0.014
648.5	-0.009
649	-0.005
649.5	0.001
650	0.003
650.5	0.006
651	0.005
651.5	0.004
652	0.003
652.5	0
653	-0.002
653.5	-0.004
654	-0.007
654.5	-0.005
655	-0.004
655.5	-0.001
656	0.003
656.5	-0.003
657	-0.006
657.5	-0.011
658	-0.015
658.5	-0.022
659	-0.024
659.5	-0.02
660	-0.02
660.5	-0.018
661	-0.012
661.5	-0.011
662	-0.005
662.5	0.001
663	0.003
663.5	0.006
664	0.005
664.5	0.007
665	0.006
665.5	0.004
666	0.003
666.5	0.001
667	0.005
667.5	0.005
668	0.004
668.5	0.003
669	0.004
669.5	0.004
670	0.001
670.5	0.004
671	0.007
671.5	0.007
672	0.01
672.5	0.011
673	0.015
673.5	0.01
674	0.006
674.5	0
675	-0.003
675.5	-0.003
676	-0.004
676.5	0
677	0.001
677.5	0.003
678	0.007
678.5	0.004
679	0.002
679.5	0.001
680	0.002
680.5	-0.002
681	-0.003
681.5	0.004
682	0.003
682.5	0.002
683	0.001
683.5	0.003
684	0
684.5	0.001
685	0.005
685.5	0.008
686	0.011
686.5	0.012
687	0.006
687.5	0.005
688	0.005
688.5	0.001
689	-0.001
689.5	-0.006
690	-0.003
690.5	0.002
691	0.001
691.5	-0.007
692	-0.012
692.5	-0.011
693	-0.006
693.5	-0.003
694	-0.002
694.5	-0.006
695	-0.005
695.5	-0.002
696	-0.002
696.5	-0.005
697	-0.008
697.5	-0.008
698	-0.007
698.5	-0.002
699	-0.006
699.5	-0.005
700	-0.008
700.5	-0.003
701	0.001
701.5	0.004
702	0.003
702.5	0.003
703	0.005
703.5	0.003
704	0.001
704.5	0.001
705	-0.004
705.5	-0.006
706	-0.007
706.5	-0.006
707	-0.011
707.5	-0.012
708	-0.016
708.5	-0.013
709	-0.015
709.5	-0.01
710	-0.008
710.5	-0.008
711	-0.01
711.5	-0.004
712	-0.007
712.5	-0.008
713	-0.01
713.5	-0.009
714	-0.007
714.5	-0.004
715	-0.001
715.5	-0.005
716	-0.006
716.5	-0.004
717	-0.009
717.5	-0.012
718	-0.012
718.5	-0.01
719	-0.007
719.5	-0.003
720	-0.003
720.5	-0.007
721	-0.008
721.5	-0.005
722	-0.002
722.5	-0.007
723	-0.004
723.5	-0.003
724	-0.002
724.5	-0.006
725	-0.012
725.5	-0.019
726	-0.023
726.5	-0.021
727	-0.014
727.5	-0.013
728	-0.005
728.5	-0.004
729	-0.001
729.5	-0.004
730	-0.006
730.5	-0.005
731	-0.005
731.5	-0.007
732	-0.006
732.5	-0.004
733	-0.006
733.5	-0.005
734	-0.008
734.5	-0.008
735	-0.01
735.5	-0.01
736	-0.007
736.5	-0.011
737	-0.013
737.5	-0.014
738	-0.012
738.5	-0.004
739	0
739.5	0.003
740	0.003
740.5	0.005
741	0.004
741.5	0.002
742	-0.003
742.5	-0.004
743	0
743.5	0.001
744	-0.004
744.5	-0.003
745	-0.004
745.5	0.002
746	-0.001
746.5	0.004
747	0.005
747.5	0.01
748	0.013
748.5	0.012
749	0.01
749.5	0.007
750	0.004
750.5	-0.001
751	-0.007
751.5	-0.005
752	-0.005
752.5	-0.006
753	-0.002
753.5	-0.001
754	-0.001
754.5	-0.009
755	-0.01
755.5	-0.016
756	-0.014
756.5	-0.014
757	-0.013
757.5	-0.01
758	0.001
758.5	0.007
759	0.011
759.5	0.009
760	0.01
760.5	0.011
761	0.008
761.5	0.003
762	-0.001
762.5	-0.001
763	-0.005
763.5	-0.007
764	-0.012
764.5	-0.019
765	-0.021
765.5	-0.013
766	-0.01
766.5	-0.006
767	-0.009
767.5	-0.009
768	-0.014
768.5	-0.009
769	-0.011
769.5	-0.011
770	-0.008
770.5	0
771	0
771.5	-0.006
772	-0.008
772.5	-0.005
773	-0.005
773.5	0.003
774	0.004
774.5	0
775	-0.003
775.5	-0.004
776	-0.011
776.5	-0.02
777	-0.017
777.5	-0.009
778	-0.006
778.5	-0.001
779	0.005
779.5	0.007
780	0.008
780.5	0.009
781	0.007
781.5	-0.002
782	-0.007
782.5	-0.009
783	-0.011
783.5	-0.016
784	-0.013
784.5	-0.008
785	-0.008
785.5	-0.007
786	-0.011
786.5	-0.011
787	-0.012
787.5	-0.013
788	-0.016
788.5	-0.022
789	-0.025
789.5	-0.027
790	-0.03
790.5	-0.032
791	-0.033
791.5	-0.024
792	-0.017
792.5	-0.009
793	-0.005
793.5	-0.01
794	-0.018
794.5	-0.026
795	-0.027
795.5	-0.029
796	-0.029
796.5	-0.031
797	-0.026
797.5	-0.02
798	-0.011
798.5	-0.016
799	-0.023
799.5	-0.023
800	-0.022
800.5	-0.016
801	-0.018
801.5	-0.01
802	-0.003
802.5	0.002
803	0.01
803.5	0.001
804	-0.007
804.5	-0.011
805	-0.015
805.5	-0.018
806	-0.018
806.5	-0.006
807	-0.004
807.5	-0.001
808	-0.008
808.5	-0.021
809	-0.024
809.5	-0.021
810	-0.018
810.5	-0.014
811	-0.006
811.5	0.002
812	0.007
812.5	0
813	-0.004
813.5	-0.001
814	-0.008
814.5	-0.003
815	-0.002
815.5	0.003
816	0
816.5	0
817	-0.007
817.5	-0.014
818	-0.014
818.5	-0.017
819	-0.029
819.5	-0.031
820	-0.03
820.5	-0.027
821	-0.029
821.5	-0.023
822	-0.018
822.5	-0.013
823	-0.01
823.5	-0.001
824	0.004
824.5	0.003
825	0.007
825.5	0.005
826	-0.003
826.5	-0.005
827	-0.011
827.5	-0.014
828	-0.014
828.5	-0.01
829	-0.009
829.5	-0.004
830	-0.004
830.5	0
831	0.006
831.5	0.004
832	-0.004
832.5	-0.004
833	-0.011
833.5	-0.015
834	-0.018
834.5	-0.02
835	-0.026
835.5	-0.019
836	-0.016
836.5	-0.013
837	-0.008
837.5	0.002
838	0.004
838.5	0.01
839	0.012
839.5	0.012
840	0.006
840.5	0.009
841	0.004
841.5	0.012
842	0.003
842.5	0.003
843	-0.002
843.5	0.001
844	-0.002
844.5	-0.008
845	-0.013
845.5	-0.02
846	-0.023
846.5	-0.023
847	-0.026
847.5	-0.018
848	-0.011
848.5	-0.004
849	-0.002
849.5	-0.007
850	-0.02
	
	
WT 0.1M trehalose	
4/4/2023 5:36 PM	
Wavelength (nm)	10mm Absorbance
//WLCalib: Shift 	0.20333
//WLCalib: 261S 	-0.45
//WLCalib: 362S 	-0.7
//WLCalib: 484S 	-0.73
//WLCalib: 529S 	-0.44
//WLCalib: 823S 	-0.81
//QSpecEnd: 	
190	0.467
190.5	0.424
191	0.41
191.5	0.382
192	0.357
192.5	0.339
193	0.315
193.5	0.295
194	0.259
194.5	0.227
195	0.206
195.5	0.212
196	0.217
196.5	0.217
197	0.245
197.5	0.258
198	0.252
198.5	0.235
199	0.216
199.5	0.204
200	0.182
200.5	0.175
201	0.166
201.5	0.163
202	0.161
202.5	0.159
203	0.163
203.5	0.175
204	0.181
204.5	0.18
205	0.164
205.5	0.167
206	0.158
206.5	0.14
207	0.123
207.5	0.113
208	0.119
208.5	0.115
209	0.112
209.5	0.118
210	0.119
210.5	0.138
211	0.134
211.5	0.123
212	0.114
212.5	0.105
213	0.107
213.5	0.101
214	0.096
214.5	0.1
215	0.098
215.5	0.103
216	0.106
216.5	0.102
217	0.098
217.5	0.087
218	0.081
218.5	0.077
219	0.071
219.5	0.073
220	0.075
220.5	0.081
221	0.084
221.5	0.078
222	0.076
222.5	0.065
223	0.059
223.5	0.059
224	0.057
224.5	0.057
225	0.057
225.5	0.058
226	0.051
226.5	0.049
227	0.047
227.5	0.044
228	0.043
228.5	0.04
229	0.041
229.5	0.034
230	0.031
230.5	0.029
231	0.03
231.5	0.029
232	0.027
232.5	0.032
233	0.031
233.5	0.028
234	0.027
234.5	0.02
235	0.016
235.5	0.013
236	0.011
236.5	0.009
237	0.011
237.5	0.017
238	0.017
238.5	0.016
239	0.018
239.5	0.015
240	0.015
240.5	0.011
241	0.007
241.5	0.008
242	0.009
242.5	0.013
243	0.012
243.5	0.01
244	0.011
244.5	0.011
245	0.009
245.5	0.006
246	0.005
246.5	0.007
247	0.011
247.5	0.014
248	0.015
248.5	0.017
249	0.019
249.5	0.023
250	0.022
250.5	0.018
251	0.015
251.5	0.012
252	0.011
252.5	0.009
253	0.01
253.5	0.011
254	0.012
254.5	0.015
255	0.013
255.5	0.014
256	0.014
256.5	0.017
257	0.019
257.5	0.017
258	0.018
258.5	0.016
259	0.014
259.5	0.011
260	0.009
260.5	0.01
261	0.01
261.5	0.015
262	0.015
262.5	0.015
263	0.016
263.5	0.016
264	0.015
264.5	0.013
265	0.011
265.5	0.009
266	0.005
266.5	0.003
267	0.002
267.5	0.002
268	0.007
268.5	0.009
269	0.01
269.5	0.015
270	0.015
270.5	0.012
271	0.009
271.5	0.006
272	0.006
272.5	0.006
273	0.01
273.5	0.01
274	0.011
274.5	0.014
275	0.012
275.5	0.011
276	0.009
276.5	0.005
277	0.008
277.5	0.007
278	0.009
278.5	0.01
279	0.011
279.5	0.013
280	0.013
280.5	0.013
281	0.01
281.5	0.009
282	0.008
282.5	0.008
283	0.007
283.5	0.008
284	0.011
284.5	0.012
285	0.012
285.5	0.012
286	0.011
286.5	0.007
287	0.002
287.5	0
288	-0.001
288.5	0.001
289	0.005
289.5	0.009
290	0.014
290.5	0.015
291	0.017
291.5	0.014
292	0.011
292.5	0.007
293	0.003
293.5	-0.002
294	-0.003
294.5	-0.001
295	-0.001
295.5	0
296	0.002
296.5	0.005
297	0.008
297.5	0.01
298	0.007
298.5	0.006
299	0.007
299.5	0.004
300	0.002
300.5	0
301	-0.002
301.5	0
302	0.003
302.5	0.003
303	0.006
303.5	0.009
304	0.012
304.5	0.014
305	0.015
305.5	0.012
306	0.011
306.5	0.006
307	0.002
307.5	0
308	-0.001
308.5	-0.001
309	0.003
309.5	0.004
310	0.006
310.5	0.009
311	0.01
311.5	0.009
312	0.01
312.5	0.008
313	0.008
313.5	0.009
314	0.009
314.5	0.01
315	0.013
315.5	0.012
316	0.012
316.5	0.012
317	0.011
317.5	0.008
318	0.006
318.5	0.003
319	0.007
319.5	0.009
320	0.01
320.5	0.011
321	0.014
321.5	0.016
322	0.014
322.5	0.008
323	0.002
323.5	0
324	0.001
324.5	0.001
325	0.003
325.5	0.007
326	0.01
326.5	0.01
327	0.01
327.5	0.007
328	0.006
328.5	0.009
329	0.011
329.5	0.014
330	0.016
330.5	0.018
331	0.018
331.5	0.016
332	0.018
332.5	0.016
333	0.014
333.5	0.011
334	0.01
334.5	0.006
335	0.007
335.5	0.008
336	0.01
336.5	0.011
337	0.015
337.5	0.015
338	0.017
338.5	0.017
339	0.017
339.5	0.015
340	0.017
340.5	0.014
341	0.013
341.5	0.012
342	0.009
342.5	0.009
343	0.008
343.5	0.009
344	0.01
344.5	0.012
345	0.014
345.5	0.012
346	0.014
346.5	0.016
347	0.015
347.5	0.015
348	0.014
348.5	0.014
349	0.014
349.5	0.011
350	0.009
350.5	0.007
351	0.004
351.5	0.002
352	0.003
352.5	0.005
353	0.008
353.5	0.01
354	0.013
354.5	0.012
355	0.011
355.5	0.009
356	0.006
356.5	0.006
357	0.006
357.5	0.005
358	0.007
358.5	0.01
359	0.011
359.5	0.013
360	0.013
360.5	0.012
361	0.011
361.5	0.01
362	0.009
362.5	0.009
363	0.009
363.5	0.011
364	0.009
364.5	0.011
365	0.01
365.5	0.015
366	0.016
366.5	0.019
367	0.02
367.5	0.018
368	0.014
368.5	0.011
369	0.01
369.5	0.006
370	0.008
370.5	0.01
371	0.012
371.5	0.015
372	0.017
372.5	0.013
373	0.01
373.5	0.009
374	0.008
374.5	0.003
375	0.005
375.5	0.005
376	0.008
376.5	0.009
377	0.01
377.5	0.01
378	0.011
378.5	0.015
379	0.014
379.5	0.011
380	0.011
380.5	0.011
381	0.013
381.5	0.016
382	0.017
382.5	0.02
383	0.021
383.5	0.02
384	0.017
384.5	0.008
385	0.004
385.5	0.003
386	0.003
386.5	0.009
387	0.012
387.5	0.016
388	0.017
388.5	0.019
389	0.017
389.5	0.015
390	0.013
390.5	0.012
391	0.009
391.5	0.008
392	0.009
392.5	0.007
393	0.005
393.5	0.007
394	0.007
394.5	0.009
395	0.009
395.5	0.013
396	0.013
396.5	0.014
397	0.017
397.5	0.018
398	0.017
398.5	0.016
399	0.016
399.5	0.015
400	0.016
400.5	0.015
401	0.012
401.5	0.011
402	0.01
402.5	0.008
403	0.007
403.5	0.005
404	0.008
404.5	0.008
405	0.008
405.5	0.008
406	0.009
406.5	0.008
407	0.007
407.5	0.004
408	0.005
408.5	0.005
409	0.006
409.5	0.005
410	0.005
410.5	0.006
411	0.008
411.5	0.01
412	0.009
412.5	0.01
413	0.011
413.5	0.011
414	0.011
414.5	0.007
415	0.006
415.5	0.007
416	0.01
416.5	0.012
417	0.01
417.5	0.008
418	0.009
418.5	0.008
419	0.007
419.5	0.004
420	0.003
420.5	0.004
421	0.006
421.5	0.006
422	0.005
422.5	0.005
423	0.008
423.5	0.01
424	0.01
424.5	0.012
425	0.012
425.5	0.011
426	0.011
426.5	0.01
427	0.012
427.5	0.012
428	0.011
428.5	0.011
429	0.01
429.5	0.008
430	0.007
430.5	0.003
431	0.003
431.5	0.005
432	0.008
432.5	0.01
433	0.011
433.5	0.014
434	0.013
434.5	0.011
435	0.011
435.5	0.007
436	0.005
436.5	0.006
437	0.007
437.5	0.007
438	0.01
438.5	0.014
439	0.013
439.5	0.012
440	0.012
440.5	0.009
441	0.007
441.5	0.007
442	0.005
442.5	0.005
443	0.008
443.5	0.009
444	0.009
444.5	0.01
445	0.009
445.5	0.011
446	0.009
446.5	0.008
447	0.005
447.5	0.001
448	-0.002
448.5	-0.003
449	-0.004
449.5	0
450	0.002
450.5	0.004
451	0.006
451.5	0.008
452	0.009
452.5	0.008
453	0.007
453.5	0.008
454	0.008
454.5	0.009
455	0.008
455.5	0.008
456	0.009
456.5	0.01
457	0.011
457.5	0.011
458	0.01
458.5	0.008
459	0.007
459.5	0.005
460	0.005
460.5	0.008
461	0.008
461.5	0.009
462	0.013
462.5	0.015
463	0.015
463.5	0.015
464	0.013
464.5	0.013
465	0.014
465.5	0.015
466	0.013
466.5	0.011
467	0.012
467.5	0.011
468	0.01
468.5	0.007
469	0.004
469.5	0.006
470	0.007
470.5	0.01
471	0.012
471.5	0.012
472	0.011
472.5	0.01
473	0.009
473.5	0.008
474	0.007
474.5	0.009
475	0.008
475.5	0.009
476	0.009
476.5	0.008
477	0.005
477.5	0.004
478	0.005
478.5	0.005
479	0.005
479.5	0.006
480	0.006
480.5	0.007
481	0.01
481.5	0.011
482	0.011
482.5	0.012
483	0.012
483.5	0.012
484	0.011
484.5	0.009
485	0.007
485.5	0.005
486	0.006
486.5	0.005
487	0.003
487.5	0.004
488	0.008
488.5	0.009
489	0.01
489.5	0.009
490	0.01
490.5	0.01
491	0.009
491.5	0.008
492	0.005
492.5	0.007
493	0.009
493.5	0.008
494	0.007
494.5	0.005
495	0.007
495.5	0.007
496	0.007
496.5	0.005
497	0.004
497.5	0.004
498	0.006
498.5	0.008
499	0.009
499.5	0.009
500	0.009
500.5	0.008
501	0.006
501.5	0.007
502	0.008
502.5	0.007
503	0.009
503.5	0.01
504	0.01
504.5	0.009
505	0.007
505.5	0.002
506	0.005
506.5	0.006
507	0.005
507.5	0.004
508	0.004
508.5	0.005
509	0.007
509.5	0.009
510	0.011
510.5	0.013
511	0.016
511.5	0.016
512	0.015
512.5	0.015
513	0.013
513.5	0.009
514	0.005
514.5	0.002
515	-0.001
515.5	-0.002
516	-0.005
516.5	-0.003
517	0
517.5	0.004
518	0.003
518.5	0.003
519	0.003
519.5	0.004
520	0.004
520.5	0.009
521	0.01
521.5	0.014
522	0.017
522.5	0.018
523	0.015
523.5	0.01
524	0.008
524.5	0.004
525	0.003
525.5	0.002
526	0.002
526.5	0.005
527	0.007
527.5	0.009
528	0.008
528.5	0.006
529	0.007
529.5	0.009
530	0.009
530.5	0.007
531	0.007
531.5	0.009
532	0.008
532.5	0.008
533	0.009
533.5	0.006
534	0.006
534.5	0.006
535	0.006
535.5	0.007
536	0.007
536.5	0.008
537	0.009
537.5	0.009
538	0.008
538.5	0.003
539	0.003
539.5	0.005
540	0.007
540.5	0.008
541	0.011
541.5	0.013
542	0.013
542.5	0.012
543	0.01
543.5	0.008
544	0.01
544.5	0.009
545	0.007
545.5	0.006
546	0.007
546.5	0.009
547	0.009
547.5	0.011
548	0.014
548.5	0.013
549	0.012
549.5	0.013
550	0.01
550.5	0.008
551	0.008
551.5	0.007
552	0.008
552.5	0.009
553	0.007
553.5	0.005
554	0.005
554.5	0.007
555	0.008
555.5	0.007
556	0.01
556.5	0.011
557	0.012
557.5	0.012
558	0.011
558.5	0.01
559	0.012
559.5	0.012
560	0.015
560.5	0.013
561	0.015
561.5	0.012
562	0.01
562.5	0.009
563	0.008
563.5	0.005
564	0.007
564.5	0.007
565	0.012
565.5	0.012
566	0.012
566.5	0.009
567	0.009
567.5	0.007
568	0.005
568.5	0.004
569	0.004
569.5	0.005
570	0.005
570.5	0.004
571	0.003
571.5	0.007
572	0.011
572.5	0.012
573	0.016
573.5	0.018
574	0.018
574.5	0.016
575	0.012
575.5	0.008
576	0.004
576.5	0.006
577	0.008
577.5	0.006
578	0.004
578.5	0.002
579	-0.001
579.5	0.002
580	0.003
580.5	0.003
581	0.005
581.5	0.008
582	0.01
582.5	0.009
583	0.007
583.5	0.004
584	0.004
584.5	0.007
585	0.009
585.5	0.006
586	0.009
586.5	0.009
587	0.01
587.5	0.011
588	0.01
588.5	0.006
589	0.005
589.5	0.001
590	0
590.5	0
591	0.004
591.5	0.006
592	0.01
592.5	0.01
593	0.01
593.5	0.01
594	0.01
594.5	0.006
595	0.007
595.5	0.009
596	0.011
596.5	0.01
597	0.011
597.5	0.009
598	0.01
598.5	0.01
599	0.013
599.5	0.015
600	0.015
600.5	0.017
601	0.015
601.5	0.014
602	0.015
602.5	0.012
603	0.007
603.5	0
604	-0.001
604.5	0
605	-0.001
605.5	0
606	0.004
606.5	0.009
607	0.014
607.5	0.016
608	0.017
608.5	0.019
609	0.021
609.5	0.02
610	0.02
610.5	0.018
611	0.017
611.5	0.016
612	0.012
612.5	0.013
613	0.013
613.5	0.013
614	0.011
614.5	0.011
615	0.009
615.5	0.012
616	0.012
616.5	0.016
617	0.015
617.5	0.016
618	0.015
618.5	0.012
619	0.009
619.5	0.006
620	0.002
620.5	0.004
621	0.007
621.5	0.013
622	0.02
622.5	0.025
623	0.023
623.5	0.021
624	0.013
624.5	0.004
625	-0.001
625.5	-0.003
626	0
626.5	0.006
627	0.009
627.5	0.016
628	0.018
628.5	0.016
629	0.015
629.5	0.009
630	0.009
630.5	0.007
631	0.005
631.5	0.009
632	0.009
632.5	0.013
633	0.018
633.5	0.018
634	0.017
634.5	0.013
635	0.008
635.5	0.005
636	-0.002
636.5	-0.001
637	-0.001
637.5	0
638	0.002
638.5	0.005
639	0.008
639.5	0.01
640	0.014
640.5	0.015
641	0.016
641.5	0.02
642	0.02
642.5	0.022
643	0.024
643.5	0.022
644	0.016
644.5	0.015
645	0.011
645.5	0.004
646	-0.002
646.5	-0.006
647	-0.007
647.5	-0.004
648	0
648.5	0
649	0
649.5	0.003
650	0.005
650.5	0.006
651	0.005
651.5	0.001
652	0.009
652.5	0.012
653	0.011
653.5	0.014
654	0.012
654.5	0.013
655	0.016
655.5	0.014
656	0.014
656.5	0.004
657	0.004
657.5	0.002
658	-0.001
658.5	-0.004
659	0.002
659.5	0.006
660	0.008
660.5	0.014
661	0.019
661.5	0.015
662	0.017
662.5	0.021
663	0.023
663.5	0.024
664	0.029
664.5	0.023
665	0.018
665.5	0.012
666	0.01
666.5	0.01
667	0.012
667.5	0.017
668	0.018
668.5	0.022
669	0.024
669.5	0.022
670	0.02
670.5	0.019
671	0.02
671.5	0.02
672	0.021
672.5	0.02
673	0.02
673.5	0.016
674	0.013
674.5	0.012
675	0.014
675.5	0.013
676	0.01
676.5	0.011
677	0.011
677.5	0.011
678	0.018
678.5	0.016
679	0.012
679.5	0.012
680	0.014
680.5	0.014
681	0.015
681.5	0.02
682	0.022
682.5	0.027
683	0.027
683.5	0.023
684	0.013
684.5	0.007
685	0.005
685.5	0.008
686	0.006
686.5	0.009
687	0.008
687.5	0.016
688	0.018
688.5	0.017
689	0.015
689.5	0.013
690	0.015
690.5	0.017
691	0.011
691.5	0.004
692	0.002
692.5	0.001
693	0.002
693.5	0.001
694	0.002
694.5	0.004
695	0.004
695.5	0.009
696	0.009
696.5	0.01
697	0.01
697.5	0.006
698	0.007
698.5	0.012
699	0.014
699.5	0.012
700	0.001
700.5	-0.003
701	0
701.5	0.003
702	0.003
702.5	0.009
703	0.013
703.5	0.015
704	0.019
704.5	0.016
705	0.013
705.5	0.011
706	0.01
706.5	0.009
707	0.007
707.5	0.008
708	-0.001
708.5	-0.004
709	-0.009
709.5	-0.003
710	0.001
710.5	0.007
711	0.006
711.5	0.01
712	0.014
712.5	0.011
713	0.007
713.5	0.008
714	0.001
714.5	0.005
715	0.002
715.5	-0.001
716	-0.008
716.5	-0.008
717	-0.005
717.5	-0.006
718	-0.003
718.5	0.004
719	0.004
719.5	0.012
720	0.011
720.5	0.008
721	0
721.5	0.007
722	0.012
722.5	0.009
723	0.011
723.5	0.012
724	0.008
724.5	0.004
725	-0.004
725.5	-0.01
726	-0.022
726.5	-0.019
727	-0.014
727.5	-0.012
728	-0.002
728.5	0
729	0.004
729.5	0.007
730	0.011
730.5	0.008
731	0.003
731.5	0.001
732	0.004
732.5	0.001
733	0.004
733.5	0.003
734	0.004
734.5	0.005
735	0.003
735.5	-0.009
736	-0.012
736.5	-0.014
737	-0.014
737.5	-0.019
738	-0.016
738.5	-0.003
739	0.01
739.5	0.021
740	0.023
740.5	0.022
741	0.022
741.5	0.022
742	0.015
742.5	0.009
743	0.01
743.5	0.013
744	0.017
744.5	0.022
745	0.022
745.5	0.025
746	0.024
746.5	0.022
747	0.021
747.5	0.019
748	0.018
748.5	0.013
749	0.006
749.5	0.007
750	0.004
750.5	0.001
751	0
751.5	0.005
752	0.012
752.5	0.015
753	0.017
753.5	0.018
754	0.01
754.5	0.002
755	-0.011
755.5	-0.024
756	-0.021
756.5	-0.015
757	-0.012
757.5	-0.004
758	0.006
758.5	0.021
759	0.021
759.5	0.02
760	0.02
760.5	0.019
761	0.019
761.5	0.021
762	0.018
762.5	0.017
763	0.013
763.5	0.014
764	0.006
764.5	0
765	-0.003
765.5	-0.003
766	-0.003
766.5	0.005
767	0.006
767.5	-0.002
768	-0.002
768.5	0.002
769	-0.001
769.5	0
770	-0.001
770.5	0.006
771	0.011
771.5	0.013
772	0.01
772.5	0.009
773	0.008
773.5	0.014
774	0.014
774.5	0.015
775	0.012
775.5	0.017
776	0.016
776.5	0.012
777	0.01
777.5	0.016
778	0.017
778.5	0.018
779	0.016
779.5	0.013
780	0.009
780.5	0.01
781	0.009
781.5	0.006
782	0.004
782.5	0.006
783	0.011
783.5	0.005
784	0.007
784.5	0.006
785	0.006
785.5	0.007
786	0.003
786.5	0.004
787	0.001
787.5	0
788	0.001
788.5	-0.003
789	0.001
789.5	-0.002
790	0.002
790.5	0
791	-0.002
791.5	0.003
792	0.008
792.5	0.014
793	0.012
793.5	0.006
794	-0.001
794.5	-0.007
795	-0.005
795.5	-0.013
796	-0.017
796.5	-0.018
797	-0.007
797.5	-0.004
798	-0.006
798.5	-0.014
799	-0.019
799.5	-0.014
800	-0.009
800.5	-0.008
801	-0.009
801.5	0.004
802	0.019
802.5	0.027
803	0.033
803.5	0.02
804	0.011
804.5	0.004
805	0.004
805.5	0.008
806	0.007
806.5	0.017
807	0.021
807.5	0.029
808	0.023
808.5	0.012
809	0.006
809.5	0.004
810	0.014
810.5	0.017
811	0.015
811.5	0.024
812	0.028
812.5	0.024
813	0.021
813.5	0.016
814	0.005
814.5	0.001
815	0.002
815.5	-0.001
816	-0.002
816.5	0.01
817	0.011
817.5	0.01
818	0.009
818.5	0
819	-0.01
819.5	-0.012
820	-0.01
820.5	-0.012
821	-0.015
821.5	-0.008
822	-0.004
822.5	0.001
823	0.006
823.5	0.014
824	0.017
824.5	0.018
825	0.017
825.5	0.012
826	0.001
826.5	0
827	-0.007
827.5	-0.005
828	0.001
828.5	0.003
829	0.006
829.5	0.009
830	0.008
830.5	0.01
831	0.008
831.5	0.013
832	0.006
832.5	0.011
833	0.011
833.5	0.006
834	0.006
834.5	0.002
835	0
835.5	0.006
836	0.006
836.5	0.01
837	0.011
837.5	0.018
838	0.025
838.5	0.026
839	0.025
839.5	0.026
840	0.022
840.5	0.02
841	0.012
841.5	0.011
842	0.005
842.5	0
843	-0.001
843.5	-0.003
844	-0.007
844.5	-0.011
845	-0.012
845.5	-0.012
846	-0.008
846.5	-0.003
847	-0.006
847.5	0.006
848	0.009
848.5	0.019
849	0.028
849.5	0.031
850	0.028
	
	
WT 0.0035M sucrose	
4/4/2023 5:37 PM	
Wavelength (nm)	10mm Absorbance
//WLCalib: Shift 	0.20333
//WLCalib: 261S 	-0.45
//WLCalib: 362S 	-0.7
//WLCalib: 484S 	-0.73
//WLCalib: 529S 	-0.44
//WLCalib: 823S 	-0.81
//QSpecEnd: 	
190	9.769
190.5	10.097
191	10.31
191.5	10.473
192	10.685
192.5	10.799
193	10.866
193.5	10.899
194	10.947
194.5	11.133
195	11.234
195.5	11.306
196	11.373
196.5	11.318
197	11.37
197.5	11.387
198	11.422
198.5	11.539
199	11.619
199.5	11.763
200	11.795
200.5	11.91
201	12.037
201.5	12.138
202	12.311
202.5	12.435
203	12.619
203.5	12.818
204	12.916
204.5	13.046
205	13.086
205.5	13.138
206	13.17
206.5	13.239
207	13.236
207.5	13.154
208	13.125
208.5	13.009
209	12.856
209.5	12.684
210	12.476
210.5	12.229
211	12.03
211.5	11.877
212	11.611
212.5	11.372
213	11.141
213.5	10.837
214	10.561
214.5	10.274
215	9.963
215.5	9.629
216	9.302
216.5	8.947
217	8.601
217.5	8.281
218	7.99
218.5	7.631
219	7.319
219.5	7.001
220	6.692
220.5	6.391
221	6.108
221.5	5.833
222	5.564
222.5	5.317
223	5.072
223.5	4.823
224	4.588
224.5	4.353
225	4.126
225.5	3.903
226	3.677
226.5	3.46
227	3.255
227.5	3.064
228	2.895
228.5	2.747
229	2.628
229.5	2.522
230	2.435
230.5	2.346
231	2.257
231.5	2.161
232	2.06
232.5	1.966
233	1.872
233.5	1.785
234	1.71
234.5	1.641
235	1.586
235.5	1.531
236	1.484
236.5	1.441
237	1.401
237.5	1.371
238	1.339
238.5	1.309
239	1.282
239.5	1.255
240	1.235
240.5	1.209
241	1.185
241.5	1.17
242	1.154
242.5	1.143
243	1.13
243.5	1.119
244	1.115
244.5	1.111
245	1.107
245.5	1.098
246	1.092
246.5	1.087
247	1.081
247.5	1.079
248	1.075
248.5	1.071
249	1.072
249.5	1.075
250	1.076
250.5	1.074
251	1.071
251.5	1.067
252	1.067
252.5	1.065
253	1.064
253.5	1.062
254	1.065
254.5	1.069
255	1.073
255.5	1.075
256	1.073
256.5	1.074
257	1.07
257.5	1.064
258	1.059
258.5	1.055
259	1.052
259.5	1.05
260	1.051
260.5	1.049
261	1.05
261.5	1.053
262	1.054
262.5	1.056
263	1.059
263.5	1.061
264	1.06
264.5	1.061
265	1.056
265.5	1.055
266	1.05
266.5	1.044
267	1.043
267.5	1.045
268	1.049
268.5	1.05
269	1.053
269.5	1.056
270	1.057
270.5	1.053
271	1.049
271.5	1.04
272	1.036
272.5	1.034
273	1.033
273.5	1.033
274	1.04
274.5	1.044
275	1.043
275.5	1.041
276	1.041
276.5	1.035
277	1.032
277.5	1.033
278	1.036
278.5	1.039
279	1.046
279.5	1.045
280	1.043
280.5	1.047
281	1.043
281.5	1.039
282	1.033
282.5	1.034
283	1.033
283.5	1.031
284	1.033
284.5	1.029
285	1.031
285.5	1.032
286	1.025
286.5	1.019
287	1.013
287.5	1.012
288	1.01
288.5	1.011
289	1.012
289.5	1.014
290	1.016
290.5	1.016
291	1.015
291.5	1.012
292	1.01
292.5	1.009
293	1.008
293.5	1.007
294	1.005
294.5	1.007
295	1.006
295.5	1.005
296	1.005
296.5	1.004
297	1.005
297.5	1.009
298	1.007
298.5	1.003
299	1
299.5	1
300	0.999
300.5	0.995
301	0.991
301.5	0.989
302	0.991
302.5	0.993
303	0.996
303.5	0.994
304	0.994
304.5	0.997
305	0.999
305.5	0.994
306	0.99
306.5	0.988
307	0.99
307.5	0.992
308	0.992
308.5	0.989
309	0.987
309.5	0.984
310	0.98
310.5	0.974
311	0.971
311.5	0.969
312	0.969
312.5	0.97
313	0.971
313.5	0.975
314	0.974
314.5	0.974
315	0.977
315.5	0.978
316	0.978
316.5	0.977
317	0.975
317.5	0.973
318	0.971
318.5	0.967
319	0.966
319.5	0.967
320	0.966
320.5	0.968
321	0.967
321.5	0.968
322	0.965
322.5	0.959
323	0.958
323.5	0.958
324	0.956
324.5	0.956
325	0.956
325.5	0.958
326	0.959
326.5	0.961
327	0.959
327.5	0.957
328	0.958
328.5	0.96
329	0.957
329.5	0.962
330	0.962
330.5	0.963
331	0.961
331.5	0.959
332	0.958
332.5	0.958
333	0.958
333.5	0.958
334	0.953
334.5	0.954
335	0.953
335.5	0.956
336	0.96
336.5	0.965
337	0.968
337.5	0.974
338	0.977
338.5	0.975
339	0.969
339.5	0.965
340	0.959
340.5	0.955
341	0.955
341.5	0.952
342	0.949
342.5	0.951
343	0.951
343.5	0.95
344	0.948
344.5	0.947
345	0.944
345.5	0.945
346	0.948
346.5	0.948
347	0.95
347.5	0.951
348	0.952
348.5	0.949
349	0.946
349.5	0.942
350	0.938
350.5	0.939
351	0.936
351.5	0.933
352	0.934
352.5	0.935
353	0.936
353.5	0.934
354	0.938
354.5	0.941
355	0.942
355.5	0.942
356	0.939
356.5	0.935
357	0.934
357.5	0.931
358	0.926
358.5	0.927
359	0.93
359.5	0.935
360	0.937
360.5	0.936
361	0.932
361.5	0.93
362	0.927
362.5	0.925
363	0.921
363.5	0.923
364	0.923
364.5	0.926
365	0.926
365.5	0.928
366	0.927
366.5	0.931
367	0.934
367.5	0.933
368	0.929
368.5	0.927
369	0.925
369.5	0.924
370	0.922
370.5	0.924
371	0.927
371.5	0.932
372	0.933
372.5	0.93
373	0.924
373.5	0.921
374	0.92
374.5	0.918
375	0.92
375.5	0.922
376	0.926
376.5	0.927
377	0.928
377.5	0.93
378	0.929
378.5	0.93
379	0.932
379.5	0.929
380	0.932
380.5	0.931
381	0.929
381.5	0.927
382	0.926
382.5	0.927
383	0.926
383.5	0.929
384	0.929
384.5	0.924
385	0.926
385.5	0.926
386	0.926
386.5	0.926
387	0.925
387.5	0.925
388	0.926
388.5	0.929
389	0.927
389.5	0.926
390	0.929
390.5	0.93
391	0.928
391.5	0.925
392	0.923
392.5	0.92
393	0.918
393.5	0.919
394	0.92
394.5	0.923
395	0.924
395.5	0.925
396	0.923
396.5	0.922
397	0.92
397.5	0.918
398	0.917
398.5	0.918
399	0.918
399.5	0.918
400	0.917
400.5	0.916
401	0.914
401.5	0.915
402	0.914
402.5	0.913
403	0.914
403.5	0.913
404	0.914
404.5	0.914
405	0.915
405.5	0.913
406	0.914
406.5	0.914
407	0.912
407.5	0.911
408	0.913
408.5	0.911
409	0.91
409.5	0.91
410	0.907
410.5	0.907
411	0.913
411.5	0.915
412	0.916
412.5	0.921
413	0.927
413.5	0.928
414	0.925
414.5	0.922
415	0.92
415.5	0.922
416	0.925
416.5	0.926
417	0.923
417.5	0.924
418	0.927
418.5	0.925
419	0.921
419.5	0.918
420	0.916
420.5	0.916
421	0.917
421.5	0.92
422	0.92
422.5	0.921
423	0.924
423.5	0.925
424	0.926
424.5	0.927
425	0.927
425.5	0.928
426	0.93
426.5	0.931
427	0.931
427.5	0.93
428	0.929
428.5	0.93
429	0.932
429.5	0.933
430	0.936
430.5	0.935
431	0.938
431.5	0.939
432	0.941
432.5	0.94
433	0.94
433.5	0.941
434	0.94
434.5	0.936
435	0.936
435.5	0.936
436	0.937
436.5	0.939
437	0.94
437.5	0.943
438	0.944
438.5	0.947
439	0.946
439.5	0.944
440	0.944
440.5	0.946
441	0.949
441.5	0.954
442	0.956
442.5	0.957
443	0.959
443.5	0.959
444	0.957
444.5	0.956
445	0.954
445.5	0.957
446	0.956
446.5	0.955
447	0.951
447.5	0.946
448	0.943
448.5	0.941
449	0.941
449.5	0.945
450	0.947
450.5	0.95
451	0.951
451.5	0.951
452	0.95
452.5	0.948
453	0.948
453.5	0.948
454	0.948
454.5	0.946
455	0.944
455.5	0.94
456	0.938
456.5	0.938
457	0.936
457.5	0.932
458	0.929
458.5	0.924
459	0.92
459.5	0.917
460	0.914
460.5	0.916
461	0.918
461.5	0.919
462	0.923
462.5	0.924
463	0.926
463.5	0.924
464	0.921
464.5	0.92
465	0.919
465.5	0.92
466	0.918
466.5	0.915
467	0.916
467.5	0.918
468	0.917
468.5	0.913
469	0.911
469.5	0.912
470	0.912
470.5	0.912
471	0.91
471.5	0.908
472	0.907
472.5	0.907
473	0.904
473.5	0.903
474	0.905
474.5	0.909
475	0.909
475.5	0.908
476	0.908
476.5	0.908
477	0.906
477.5	0.904
478	0.901
478.5	0.899
479	0.898
479.5	0.898
480	0.896
480.5	0.895
481	0.898
481.5	0.9
482	0.899
482.5	0.896
483	0.896
483.5	0.895
484	0.894
484.5	0.892
485	0.889
485.5	0.888
486	0.89
486.5	0.891
487	0.89
487.5	0.89
488	0.894
488.5	0.895
489	0.895
489.5	0.895
490	0.892
490.5	0.891
491	0.888
491.5	0.886
492	0.883
492.5	0.884
493	0.885
493.5	0.885
494	0.886
494.5	0.889
495	0.89
495.5	0.89
496	0.891
496.5	0.887
497	0.883
497.5	0.88
498	0.879
498.5	0.882
499	0.884
499.5	0.883
500	0.881
500.5	0.881
501	0.881
501.5	0.88
502	0.881
502.5	0.879
503	0.881
503.5	0.881
504	0.879
504.5	0.875
505	0.869
505.5	0.864
506	0.865
506.5	0.868
507	0.87
507.5	0.871
508	0.869
508.5	0.867
509	0.868
509.5	0.867
510	0.864
510.5	0.863
511	0.866
511.5	0.869
512	0.869
512.5	0.873
513	0.87
513.5	0.867
514	0.866
514.5	0.863
515	0.861
515.5	0.861
516	0.858
516.5	0.856
517	0.859
517.5	0.861
518	0.859
518.5	0.856
519	0.854
519.5	0.852
520	0.852
520.5	0.853
521	0.851
521.5	0.851
522	0.855
522.5	0.858
523	0.856
523.5	0.853
524	0.852
524.5	0.852
525	0.85
525.5	0.847
526	0.848
526.5	0.845
527	0.845
527.5	0.842
528	0.84
528.5	0.835
529	0.834
529.5	0.836
530	0.833
530.5	0.837
531	0.841
531.5	0.84
532	0.836
532.5	0.833
533	0.833
533.5	0.827
534	0.821
534.5	0.819
535	0.82
535.5	0.824
536	0.827
536.5	0.829
537	0.829
537.5	0.829
538	0.832
538.5	0.83
539	0.828
539.5	0.825
540	0.823
540.5	0.821
541	0.821
541.5	0.822
542	0.821
542.5	0.821
543	0.822
543.5	0.818
544	0.817
544.5	0.812
545	0.812
545.5	0.814
546	0.814
546.5	0.816
547	0.817
547.5	0.816
548	0.816
548.5	0.809
549	0.804
549.5	0.803
550	0.803
550.5	0.803
551	0.805
551.5	0.802
552	0.798
552.5	0.798
553	0.796
553.5	0.791
554	0.789
554.5	0.79
555	0.791
555.5	0.791
556	0.79
556.5	0.788
557	0.787
557.5	0.789
558	0.791
558.5	0.791
559	0.793
559.5	0.795
560	0.796
560.5	0.794
561	0.796
561.5	0.794
562	0.794
562.5	0.794
563	0.792
563.5	0.788
564	0.786
564.5	0.786
565	0.785
565.5	0.784
566	0.784
566.5	0.784
567	0.785
567.5	0.782
568	0.778
568.5	0.778
569	0.778
569.5	0.778
570	0.777
570.5	0.773
571	0.771
571.5	0.774
572	0.775
572.5	0.775
573	0.778
573.5	0.783
574	0.783
574.5	0.781
575	0.778
575.5	0.774
576	0.772
576.5	0.772
577	0.777
577.5	0.781
578	0.78
578.5	0.777
579	0.771
579.5	0.772
580	0.768
580.5	0.765
581	0.764
581.5	0.764
582	0.768
582.5	0.772
583	0.771
583.5	0.764
584	0.765
584.5	0.771
585	0.774
585.5	0.77
586	0.768
586.5	0.765
587	0.762
587.5	0.763
588	0.762
588.5	0.759
589	0.758
589.5	0.757
590	0.759
590.5	0.76
591	0.763
591.5	0.765
592	0.765
592.5	0.77
593	0.773
593.5	0.773
594	0.77
594.5	0.762
595	0.763
595.5	0.763
596	0.762
596.5	0.763
597	0.764
597.5	0.766
598	0.771
598.5	0.771
599	0.772
599.5	0.769
600	0.77
600.5	0.77
601	0.767
601.5	0.768
602	0.768
602.5	0.767
603	0.76
603.5	0.755
604	0.753
604.5	0.75
605	0.751
605.5	0.753
606	0.756
606.5	0.76
607	0.766
607.5	0.768
608	0.769
608.5	0.773
609	0.776
609.5	0.773
610	0.773
610.5	0.772
611	0.769
611.5	0.766
612	0.765
612.5	0.765
613	0.765
613.5	0.764
614	0.762
614.5	0.759
615	0.762
615.5	0.769
616	0.772
616.5	0.781
617	0.784
617.5	0.785
618	0.781
618.5	0.774
619	0.765
619.5	0.761
620	0.759
620.5	0.759
621	0.762
621.5	0.768
622	0.773
622.5	0.778
623	0.779
623.5	0.779
624	0.773
624.5	0.768
625	0.767
625.5	0.764
626	0.765
626.5	0.768
627	0.772
627.5	0.777
628	0.781
628.5	0.78
629	0.778
629.5	0.775
630	0.777
630.5	0.78
631	0.778
631.5	0.778
632	0.782
632.5	0.784
633	0.785
633.5	0.783
634	0.781
634.5	0.777
635	0.772
635.5	0.767
636	0.762
636.5	0.76
637	0.767
637.5	0.772
638	0.777
638.5	0.78
639	0.786
639.5	0.788
640	0.784
640.5	0.78
641	0.776
641.5	0.775
642	0.773
642.5	0.771
643	0.77
643.5	0.77
644	0.773
644.5	0.772
645	0.767
645.5	0.763
646	0.757
646.5	0.756
647	0.754
647.5	0.753
648	0.755
648.5	0.761
649	0.766
649.5	0.772
650	0.769
650.5	0.769
651	0.765
651.5	0.76
652	0.758
652.5	0.752
653	0.746
653.5	0.746
654	0.742
654.5	0.742
655	0.741
655.5	0.742
656	0.75
656.5	0.751
657	0.754
657.5	0.755
658	0.754
658.5	0.753
659	0.752
659.5	0.753
660	0.749
660.5	0.751
661	0.758
661.5	0.76
662	0.763
662.5	0.765
663	0.765
663.5	0.759
664	0.759
664.5	0.756
665	0.753
665.5	0.755
666	0.757
666.5	0.758
667	0.758
667.5	0.756
668	0.752
668.5	0.749
669	0.751
669.5	0.754
670	0.751
670.5	0.754
671	0.757
671.5	0.759
672	0.763
672.5	0.767
673	0.774
673.5	0.78
674	0.78
674.5	0.78
675	0.774
675.5	0.773
676	0.765
676.5	0.763
677	0.761
677.5	0.767
678	0.777
678.5	0.783
679	0.782
679.5	0.787
680	0.794
680.5	0.796
681	0.796
681.5	0.801
682	0.799
682.5	0.8
683	0.795
683.5	0.793
684	0.785
684.5	0.782
685	0.782
685.5	0.787
686	0.789
686.5	0.791
687	0.789
687.5	0.79
688	0.788
688.5	0.787
689	0.788
689.5	0.789
690	0.791
690.5	0.795
691	0.789
691.5	0.774
692	0.768
692.5	0.765
693	0.763
693.5	0.765
694	0.764
694.5	0.762
695	0.762
695.5	0.76
696	0.754
696.5	0.746
697	0.744
697.5	0.75
698	0.755
698.5	0.762
699	0.761
699.5	0.759
700	0.747
700.5	0.735
701	0.73
701.5	0.726
702	0.725
702.5	0.728
703	0.724
703.5	0.719
704	0.724
704.5	0.723
705	0.715
705.5	0.711
706	0.712
706.5	0.716
707	0.718
707.5	0.718
708	0.705
708.5	0.7
709	0.702
709.5	0.704
710	0.705
710.5	0.704
711	0.7
711.5	0.702
712	0.701
712.5	0.694
713	0.687
713.5	0.687
714	0.686
714.5	0.687
715	0.686
715.5	0.684
716	0.683
716.5	0.685
717	0.687
717.5	0.681
718	0.684
718.5	0.684
719	0.683
719.5	0.686
720	0.687
720.5	0.69
721	0.693
721.5	0.702
722	0.708
722.5	0.699
723	0.697
723.5	0.687
724	0.684
724.5	0.68
725	0.673
725.5	0.666
726	0.663
726.5	0.666
727	0.666
727.5	0.659
728	0.665
728.5	0.668
729	0.673
729.5	0.673
730	0.664
730.5	0.662
731	0.659
731.5	0.662
732	0.662
732.5	0.662
733	0.664
733.5	0.668
734	0.668
734.5	0.667
735	0.662
735.5	0.661
736	0.66
736.5	0.661
737	0.656
737.5	0.656
738	0.653
738.5	0.661
739	0.667
739.5	0.671
740	0.672
740.5	0.671
741	0.67
741.5	0.667
742	0.661
742.5	0.663
743	0.665
743.5	0.67
744	0.666
744.5	0.665
745	0.662
745.5	0.66
746	0.658
746.5	0.659
747	0.656
747.5	0.661
748	0.662
748.5	0.662
749	0.657
749.5	0.658
750	0.652
750.5	0.648
751	0.645
751.5	0.643
752	0.641
752.5	0.637
753	0.634
753.5	0.631
754	0.628
754.5	0.622
755	0.623
755.5	0.623
756	0.632
756.5	0.636
757	0.64
757.5	0.644
758	0.651
758.5	0.65
759	0.645
759.5	0.643
760	0.642
760.5	0.64
761	0.636
761.5	0.635
762	0.634
762.5	0.633
763	0.631
763.5	0.623
764	0.615
764.5	0.609
765	0.609
765.5	0.611
766	0.612
766.5	0.619
767	0.624
767.5	0.623
768	0.626
768.5	0.629
769	0.627
769.5	0.627
770	0.633
770.5	0.634
771	0.636
771.5	0.631
772	0.622
772.5	0.616
773	0.618
773.5	0.62
774	0.626
774.5	0.63
775	0.638
775.5	0.646
776	0.647
776.5	0.643
777	0.639
777.5	0.645
778	0.645
778.5	0.64
779	0.641
779.5	0.637
780	0.633
780.5	0.632
781	0.628
781.5	0.628
782	0.625
782.5	0.617
783	0.617
783.5	0.607
784	0.605
784.5	0.604
785	0.603
785.5	0.602
786	0.602
786.5	0.608
787	0.607
787.5	0.6
788	0.6
788.5	0.594
789	0.592
789.5	0.591
790	0.591
790.5	0.588
791	0.585
791.5	0.593
792	0.598
792.5	0.596
793	0.595
793.5	0.59
794	0.586
794.5	0.581
795	0.585
795.5	0.582
796	0.583
796.5	0.585
797	0.591
797.5	0.588
798	0.588
798.5	0.584
799	0.581
799.5	0.578
800	0.578
800.5	0.581
801	0.588
801.5	0.598
802	0.607
802.5	0.611
803	0.612
803.5	0.609
804	0.606
804.5	0.598
805	0.596
805.5	0.598
806	0.594
806.5	0.599
807	0.602
807.5	0.611
808	0.604
808.5	0.593
809	0.587
809.5	0.582
810	0.583
810.5	0.577
811	0.568
811.5	0.577
812	0.586
812.5	0.591
813	0.596
813.5	0.594
814	0.588
814.5	0.583
815	0.58
815.5	0.572
816	0.569
816.5	0.578
817	0.58
817.5	0.576
818	0.586
818.5	0.584
819	0.579
819.5	0.577
820	0.578
820.5	0.575
821	0.572
821.5	0.576
822	0.575
822.5	0.571
823	0.576
823.5	0.586
824	0.594
824.5	0.595
825	0.594
825.5	0.589
826	0.58
826.5	0.576
827	0.568
827.5	0.561
828	0.56
828.5	0.562
829	0.563
829.5	0.562
830	0.561
830.5	0.568
831	0.577
831.5	0.585
832	0.585
832.5	0.586
833	0.575
833.5	0.561
834	0.547
834.5	0.536
835	0.528
835.5	0.531
836	0.534
836.5	0.543
837	0.555
837.5	0.569
838	0.579
838.5	0.582
839	0.583
839.5	0.585
840	0.581
840.5	0.573
841	0.57
841.5	0.567
842	0.558
842.5	0.551
843	0.546
843.5	0.551
844	0.547
844.5	0.537
845	0.534
845.5	0.54
846	0.544
846.5	0.543
847	0.544
847.5	0.546
848	0.55
848.5	0.563
849	0.556
849.5	0.548
850	0.542
	
	
WT 0.0035M trehalose	
4/4/2023 5:39 PM	
Wavelength (nm)	10mm Absorbance
//WLCalib: Shift 	0.20333
//WLCalib: 261S 	-0.45
//WLCalib: 362S 	-0.7
//WLCalib: 484S 	-0.73
//WLCalib: 529S 	-0.44
//WLCalib: 823S 	-0.81
//QSpecEnd: 	
190	10.549
190.5	10.9
191	11.016
191.5	11.139
192	11.236
192.5	11.23
193	11.189
193.5	11.349
194	11.426
194.5	11.581
195	11.777
195.5	12.024
196	12.1
196.5	12.215
197	12.264
197.5	12.156
198	12.15
198.5	12.193
199	12.25
199.5	12.315
200	12.392
200.5	12.413
201	12.476
201.5	12.585
202	12.674
202.5	12.767
203	12.859
203.5	13.047
204	13.2
204.5	13.183
205	13.154
205.5	13.182
206	13.255
206.5	13.263
207	13.258
207.5	13.218
208	13.108
208.5	13.093
209	12.906
209.5	12.7
210	12.502
210.5	12.366
211	12.208
211.5	11.983
212	11.752
212.5	11.512
213	11.27
213.5	11.043
214	10.733
214.5	10.443
215	10.155
215.5	9.914
216	9.628
216.5	9.315
217	9.044
217.5	8.783
218	8.502
218.5	8.232
219	7.96
219.5	7.708
220	7.462
220.5	7.218
221	6.984
221.5	6.77
222	6.566
222.5	6.347
223	6.127
223.5	5.908
224	5.708
224.5	5.503
225	5.31
225.5	5.118
226	4.935
226.5	4.755
227	4.593
227.5	4.44
228	4.303
228.5	4.188
229	4.092
229.5	4
230	3.922
230.5	3.839
231	3.758
231.5	3.674
232	3.593
232.5	3.518
233	3.435
233.5	3.36
234	3.292
234.5	3.229
235	3.172
235.5	3.117
236	3.071
236.5	3.036
237	3.006
237.5	2.98
238	2.948
238.5	2.92
239	2.897
239.5	2.873
240	2.851
240.5	2.824
241	2.801
241.5	2.784
242	2.768
242.5	2.755
243	2.737
243.5	2.72
244	2.713
244.5	2.704
245	2.7
245.5	2.695
246	2.694
246.5	2.693
247	2.692
247.5	2.692
248	2.686
248.5	2.678
249	2.677
249.5	2.681
250	2.684
250.5	2.687
251	2.686
251.5	2.689
252	2.689
252.5	2.688
253	2.685
253.5	2.683
254	2.683
254.5	2.682
255	2.681
255.5	2.681
256	2.682
256.5	2.687
257	2.685
257.5	2.681
258	2.681
258.5	2.679
259	2.675
259.5	2.669
260	2.666
260.5	2.663
261	2.66
261.5	2.662
262	2.656
262.5	2.66
263	2.663
263.5	2.668
264	2.67
264.5	2.67
265	2.671
265.5	2.669
266	2.666
266.5	2.662
267	2.658
267.5	2.662
268	2.661
268.5	2.658
269	2.653
269.5	2.65
270	2.652
270.5	2.652
271	2.654
271.5	2.651
272	2.653
272.5	2.653
273	2.65
273.5	2.645
274	2.638
274.5	2.634
275	2.633
275.5	2.635
276	2.64
276.5	2.638
277	2.641
277.5	2.644
278	2.644
278.5	2.643
279	2.639
279.5	2.634
280	2.63
280.5	2.627
281	2.622
281.5	2.617
282	2.612
282.5	2.611
283	2.609
283.5	2.605
284	2.606
284.5	2.601
285	2.597
285.5	2.594
286	2.589
286.5	2.582
287	2.57
287.5	2.565
288	2.561
288.5	2.558
289	2.557
289.5	2.555
290	2.558
290.5	2.559
291	2.555
291.5	2.544
292	2.536
292.5	2.536
293	2.533
293.5	2.527
294	2.523
294.5	2.524
295	2.522
295.5	2.519
296	2.513
296.5	2.507
297	2.505
297.5	2.507
298	2.503
298.5	2.498
299	2.495
299.5	2.495
300	2.492
300.5	2.487
301	2.482
301.5	2.479
302	2.477
302.5	2.477
303	2.475
303.5	2.47
304	2.471
304.5	2.474
305	2.474
305.5	2.469
306	2.466
306.5	2.462
307	2.463
307.5	2.461
308	2.459
308.5	2.45
309	2.446
309.5	2.439
310	2.433
310.5	2.426
311	2.421
311.5	2.417
312	2.418
312.5	2.42
313	2.422
313.5	2.423
314	2.419
314.5	2.417
315	2.416
315.5	2.415
316	2.414
316.5	2.409
317	2.41
317.5	2.409
318	2.41
318.5	2.406
319	2.403
319.5	2.4
320	2.394
320.5	2.389
321	2.385
321.5	2.381
322	2.38
322.5	2.378
323	2.377
323.5	2.372
324	2.373
324.5	2.369
325	2.369
325.5	2.37
326	2.372
326.5	2.371
327	2.369
327.5	2.362
328	2.358
328.5	2.356
329	2.354
329.5	2.353
330	2.356
330.5	2.36
331	2.362
331.5	2.361
332	2.361
332.5	2.36
333	2.362
333.5	2.359
334	2.354
334.5	2.351
335	2.35
335.5	2.352
336	2.347
336.5	2.345
337	2.347
337.5	2.346
338	2.346
338.5	2.344
339	2.343
339.5	2.344
340	2.348
340.5	2.351
341	2.348
341.5	2.344
342	2.341
342.5	2.335
343	2.33
343.5	2.324
344	2.325
344.5	2.325
345	2.326
345.5	2.328
346	2.327
346.5	2.327
347	2.326
347.5	2.324
348	2.322
348.5	2.319
349	2.321
349.5	2.317
350	2.31
350.5	2.304
351	2.299
351.5	2.297
352	2.296
352.5	2.299
353	2.303
353.5	2.304
354	2.307
354.5	2.306
355	2.303
355.5	2.3
356	2.295
356.5	2.289
357	2.287
357.5	2.284
358	2.281
358.5	2.28
359	2.276
359.5	2.274
360	2.272
360.5	2.271
361	2.267
361.5	2.264
362	2.264
362.5	2.264
363	2.264
363.5	2.267
364	2.266
364.5	2.269
365	2.268
365.5	2.27
366	2.273
366.5	2.273
367	2.274
367.5	2.27
368	2.266
368.5	2.261
369	2.259
369.5	2.252
370	2.248
370.5	2.247
371	2.245
371.5	2.243
372	2.244
372.5	2.244
373	2.243
373.5	2.245
374	2.248
374.5	2.248
375	2.248
375.5	2.25
376	2.25
376.5	2.25
377	2.251
377.5	2.256
378	2.255
378.5	2.257
379	2.257
379.5	2.26
380	2.26
380.5	2.264
381	2.261
381.5	2.258
382	2.255
382.5	2.25
383	2.243
383.5	2.239
384	2.237
384.5	2.237
385	2.238
385.5	2.241
386	2.244
386.5	2.249
387	2.25
387.5	2.248
388	2.247
388.5	2.248
389	2.248
389.5	2.248
390	2.246
390.5	2.247
391	2.248
391.5	2.245
392	2.243
392.5	2.237
393	2.234
393.5	2.232
394	2.232
394.5	2.235
395	2.234
395.5	2.235
396	2.235
396.5	2.232
397	2.23
397.5	2.227
398	2.225
398.5	2.223
399	2.224
399.5	2.226
400	2.226
400.5	2.226
401	2.226
401.5	2.222
402	2.22
402.5	2.217
403	2.212
403.5	2.208
404	2.208
404.5	2.21
405	2.211
405.5	2.212
406	2.217
406.5	2.221
407	2.22
407.5	2.221
408	2.223
408.5	2.221
409	2.217
409.5	2.214
410	2.21
410.5	2.21
411	2.216
411.5	2.221
412	2.222
412.5	2.229
413	2.234
413.5	2.236
414	2.233
414.5	2.231
415	2.231
415.5	2.234
416	2.24
416.5	2.243
417	2.243
417.5	2.242
418	2.243
418.5	2.242
419	2.237
419.5	2.235
420	2.235
420.5	2.234
421	2.238
421.5	2.242
422	2.241
422.5	2.242
423	2.243
423.5	2.243
424	2.243
424.5	2.245
425	2.246
425.5	2.246
426	2.248
426.5	2.252
427	2.251
427.5	2.251
428	2.25
428.5	2.256
429	2.261
429.5	2.263
430	2.266
430.5	2.267
431	2.266
431.5	2.269
432	2.268
432.5	2.269
433	2.271
433.5	2.277
434	2.279
434.5	2.277
435	2.279
435.5	2.279
436	2.276
436.5	2.275
437	2.277
437.5	2.28
438	2.286
438.5	2.293
439	2.298
439.5	2.3
440	2.301
440.5	2.303
441	2.302
441.5	2.302
442	2.302
442.5	2.303
443	2.307
443.5	2.309
444	2.309
444.5	2.309
445	2.308
445.5	2.309
446	2.307
446.5	2.305
447	2.302
447.5	2.298
448	2.297
448.5	2.297
449	2.295
449.5	2.298
450	2.296
450.5	2.294
451	2.29
451.5	2.287
452	2.284
452.5	2.281
453	2.28
453.5	2.28
454	2.28
454.5	2.276
455	2.271
455.5	2.267
456	2.262
456.5	2.26
457	2.254
457.5	2.249
458	2.242
458.5	2.237
459	2.234
459.5	2.23
460	2.226
460.5	2.227
461	2.228
461.5	2.229
462	2.229
462.5	2.228
463	2.226
463.5	2.222
464	2.22
464.5	2.22
465	2.218
465.5	2.217
466	2.212
466.5	2.208
467	2.206
467.5	2.206
468	2.204
468.5	2.2
469	2.2
469.5	2.203
470	2.203
470.5	2.203
471	2.201
471.5	2.199
472	2.193
472.5	2.19
473	2.187
473.5	2.186
474	2.187
474.5	2.189
475	2.19
475.5	2.193
476	2.192
476.5	2.189
477	2.183
477.5	2.178
478	2.173
478.5	2.171
479	2.167
479.5	2.167
480	2.166
480.5	2.167
481	2.166
481.5	2.164
482	2.158
482.5	2.153
483	2.149
483.5	2.151
484	2.151
484.5	2.152
485	2.153
485.5	2.155
486	2.156
486.5	2.156
487	2.152
487.5	2.151
488	2.153
488.5	2.152
489	2.15
489.5	2.151
490	2.151
490.5	2.149
491	2.147
491.5	2.147
492	2.143
492.5	2.143
493	2.143
493.5	2.141
494	2.142
494.5	2.143
495	2.145
495.5	2.143
496	2.144
496.5	2.137
497	2.131
497.5	2.129
498	2.129
498.5	2.13
499	2.132
499.5	2.13
500	2.129
500.5	2.127
501	2.126
501.5	2.121
502	2.118
502.5	2.114
503	2.115
503.5	2.117
504	2.113
504.5	2.108
505	2.103
505.5	2.097
506	2.1
506.5	2.1
507	2.096
507.5	2.092
508	2.091
508.5	2.089
509	2.086
509.5	2.079
510	2.079
510.5	2.079
511	2.085
511.5	2.085
512	2.085
512.5	2.086
513	2.084
513.5	2.079
514	2.075
514.5	2.07
515	2.071
515.5	2.071
516	2.065
516.5	2.062
517	2.063
517.5	2.064
518	2.064
518.5	2.061
519	2.059
519.5	2.056
520	2.056
520.5	2.055
521	2.049
521.5	2.046
522	2.046
522.5	2.046
523	2.046
523.5	2.039
524	2.037
524.5	2.034
525	2.035
525.5	2.035
526	2.036
526.5	2.034
527	2.029
527.5	2.024
528	2.019
528.5	2.011
529	2.011
529.5	2.014
530	2.015
530.5	2.019
531	2.023
531.5	2.02
532	2.014
532.5	2.009
533	2.006
533.5	1.999
534	1.996
534.5	1.994
535	1.994
535.5	1.997
536	1.997
536.5	2
537	2.001
537.5	2
538	2
538.5	1.992
539	1.988
539.5	1.981
540	1.972
540.5	1.965
541	1.964
541.5	1.967
542	1.968
542.5	1.966
543	1.966
543.5	1.967
544	1.97
544.5	1.967
545	1.966
545.5	1.964
546	1.964
546.5	1.962
547	1.957
547.5	1.954
548	1.953
548.5	1.947
549	1.944
549.5	1.945
550	1.942
550.5	1.94
551	1.938
551.5	1.932
552	1.929
552.5	1.929
553	1.924
553.5	1.92
554	1.918
554.5	1.92
555	1.917
555.5	1.916
556	1.912
556.5	1.904
557	1.899
557.5	1.899
558	1.897
558.5	1.9
559	1.904
559.5	1.907
560	1.91
560.5	1.909
561	1.908
561.5	1.899
562	1.896
562.5	1.895
563	1.893
563.5	1.891
564	1.891
564.5	1.888
565	1.892
565.5	1.891
566	1.891
566.5	1.887
567	1.89
567.5	1.885
568	1.881
568.5	1.882
569	1.884
569.5	1.883
570	1.883
570.5	1.883
571	1.881
571.5	1.88
572	1.881
572.5	1.877
573	1.877
573.5	1.88
574	1.881
574.5	1.877
575	1.873
575.5	1.872
576	1.868
576.5	1.869
577	1.874
577.5	1.877
578	1.879
578.5	1.878
579	1.874
579.5	1.874
580	1.871
580.5	1.869
581	1.868
581.5	1.866
582	1.865
582.5	1.863
583	1.861
583.5	1.856
584	1.855
584.5	1.858
585	1.857
585.5	1.856
586	1.854
586.5	1.85
587	1.845
587.5	1.844
588	1.844
588.5	1.844
589	1.845
589.5	1.849
590	1.853
590.5	1.858
591	1.861
591.5	1.861
592	1.861
592.5	1.864
593	1.863
593.5	1.859
594	1.854
594.5	1.852
595	1.854
595.5	1.854
596	1.849
596.5	1.848
597	1.848
597.5	1.85
598	1.854
598.5	1.853
599	1.853
599.5	1.852
600	1.853
600.5	1.852
601	1.847
601.5	1.844
602	1.845
602.5	1.844
603	1.841
603.5	1.836
604	1.837
604.5	1.836
605	1.84
605.5	1.842
606	1.845
606.5	1.847
607	1.854
607.5	1.852
608	1.85
608.5	1.851
609	1.858
609.5	1.859
610	1.863
610.5	1.864
611	1.866
611.5	1.87
612	1.872
612.5	1.869
613	1.867
613.5	1.866
614	1.867
614.5	1.868
615	1.87
615.5	1.87
616	1.869
616.5	1.873
617	1.871
617.5	1.87
618	1.87
618.5	1.867
619	1.866
619.5	1.868
620	1.869
620.5	1.872
621	1.874
621.5	1.877
622	1.874
622.5	1.873
623	1.871
623.5	1.871
624	1.87
624.5	1.868
625	1.871
625.5	1.873
626	1.88
626.5	1.887
627	1.889
627.5	1.89
628	1.888
628.5	1.887
629	1.886
629.5	1.883
630	1.884
630.5	1.889
631	1.889
631.5	1.895
632	1.9
632.5	1.904
633	1.9
633.5	1.898
634	1.893
634.5	1.884
635	1.877
635.5	1.876
636	1.867
636.5	1.87
637	1.876
637.5	1.879
638	1.881
638.5	1.886
639	1.886
639.5	1.886
640	1.883
640.5	1.876
641	1.872
641.5	1.875
642	1.874
642.5	1.87
643	1.873
643.5	1.875
644	1.876
644.5	1.878
645	1.873
645.5	1.859
646	1.851
646.5	1.851
647	1.849
647.5	1.847
648	1.855
648.5	1.858
649	1.867
649.5	1.872
650	1.867
650.5	1.858
651	1.846
651.5	1.839
652	1.836
652.5	1.827
653	1.82
653.5	1.818
654	1.821
654.5	1.823
655	1.826
655.5	1.828
656	1.832
656.5	1.829
657	1.832
657.5	1.833
658	1.831
658.5	1.829
659	1.829
659.5	1.824
660	1.825
660.5	1.823
661	1.828
661.5	1.829
662	1.833
662.5	1.84
663	1.846
663.5	1.844
664	1.845
664.5	1.839
665	1.839
665.5	1.836
666	1.837
666.5	1.839
667	1.839
667.5	1.843
668	1.848
668.5	1.849
669	1.853
669.5	1.855
670	1.858
670.5	1.864
671	1.865
671.5	1.867
672	1.864
672.5	1.867
673	1.869
673.5	1.866
674	1.864
674.5	1.864
675	1.865
675.5	1.869
676	1.868
676.5	1.872
677	1.874
677.5	1.879
678	1.883
678.5	1.882
679	1.887
679.5	1.896
680	1.909
680.5	1.914
681	1.917
681.5	1.929
682	1.933
682.5	1.931
683	1.927
683.5	1.926
684	1.919
684.5	1.917
685	1.921
685.5	1.922
686	1.922
686.5	1.926
687	1.919
687.5	1.917
688	1.915
688.5	1.912
689	1.906
689.5	1.902
690	1.901
690.5	1.9
691	1.893
691.5	1.884
692	1.876
692.5	1.872
693	1.872
693.5	1.873
694	1.87
694.5	1.864
695	1.857
695.5	1.85
696	1.843
696.5	1.83
697	1.824
697.5	1.82
698	1.816
698.5	1.818
699	1.814
699.5	1.811
700	1.795
700.5	1.79
701	1.789
701.5	1.788
702	1.791
702.5	1.79
703	1.784
703.5	1.782
704	1.782
704.5	1.781
705	1.771
705.5	1.766
706	1.759
706.5	1.757
707	1.755
707.5	1.744
708	1.729
708.5	1.718
709	1.714
709.5	1.718
710	1.723
710.5	1.724
711	1.724
711.5	1.735
712	1.739
712.5	1.729
713	1.719
713.5	1.708
714	1.695
714.5	1.691
715	1.685
715.5	1.68
716	1.675
716.5	1.676
717	1.674
717.5	1.667
718	1.67
718.5	1.674
719	1.676
719.5	1.681
720	1.681
720.5	1.68
721	1.674
721.5	1.675
722	1.677
722.5	1.665
723	1.663
723.5	1.66
724	1.657
724.5	1.654
725	1.644
725.5	1.632
726	1.625
726.5	1.63
727	1.636
727.5	1.631
728	1.636
728.5	1.635
729	1.64
729.5	1.642
730	1.634
730.5	1.629
731	1.627
731.5	1.628
732	1.633
732.5	1.632
733	1.63
733.5	1.622
734	1.617
734.5	1.612
735	1.601
735.5	1.596
736	1.591
736.5	1.592
737	1.595
737.5	1.59
738	1.59
738.5	1.595
739	1.601
739.5	1.602
740	1.604
740.5	1.61
741	1.607
741.5	1.605
742	1.597
742.5	1.596
743	1.598
743.5	1.597
744	1.594
744.5	1.592
745	1.595
745.5	1.599
746	1.593
746.5	1.59
747	1.586
747.5	1.589
748	1.585
748.5	1.578
749	1.574
749.5	1.569
750	1.566
750.5	1.565
751	1.563
751.5	1.565
752	1.562
752.5	1.56
753	1.554
753.5	1.55
754	1.545
754.5	1.536
755	1.537
755.5	1.537
756	1.541
756.5	1.549
757	1.556
757.5	1.562
758	1.561
758.5	1.566
759	1.563
759.5	1.554
760	1.552
760.5	1.551
761	1.547
761.5	1.55
762	1.558
762.5	1.556
763	1.551
763.5	1.552
764	1.539
764.5	1.528
765	1.522
765.5	1.525
766	1.523
766.5	1.526
767	1.531
767.5	1.528
768	1.525
768.5	1.525
769	1.524
769.5	1.526
770	1.531
770.5	1.537
771	1.536
771.5	1.536
772	1.535
772.5	1.532
773	1.533
773.5	1.541
774	1.546
774.5	1.541
775	1.538
775.5	1.534
776	1.535
776.5	1.53
777	1.531
777.5	1.534
778	1.536
778.5	1.531
779	1.523
779.5	1.513
780	1.504
780.5	1.499
781	1.504
781.5	1.5
782	1.496
782.5	1.492
783	1.492
783.5	1.487
784	1.484
784.5	1.484
785	1.486
785.5	1.489
786	1.491
786.5	1.491
787	1.488
787.5	1.485
788	1.486
788.5	1.483
789	1.476
789.5	1.474
790	1.475
790.5	1.465
791	1.465
791.5	1.469
792	1.472
792.5	1.477
793	1.482
793.5	1.479
794	1.474
794.5	1.466
795	1.464
795.5	1.448
796	1.448
796.5	1.448
797	1.444
797.5	1.45
798	1.452
798.5	1.451
799	1.445
799.5	1.445
800	1.447
800.5	1.451
801	1.459
801.5	1.471
802	1.48
802.5	1.484
803	1.488
803.5	1.486
804	1.469
804.5	1.459
805	1.453
805.5	1.452
806	1.447
806.5	1.452
807	1.456
807.5	1.454
808	1.447
808.5	1.439
809	1.424
809.5	1.42
810	1.421
810.5	1.415
811	1.418
811.5	1.427
812	1.431
812.5	1.436
813	1.434
813.5	1.436
814	1.425
814.5	1.414
815	1.413
815.5	1.41
816	1.41
816.5	1.418
817	1.416
817.5	1.416
818	1.42
818.5	1.417
819	1.41
819.5	1.41
820	1.416
820.5	1.417
821	1.412
821.5	1.421
822	1.423
822.5	1.424
823	1.431
823.5	1.445
824	1.456
824.5	1.455
825	1.448
825.5	1.437
826	1.421
826.5	1.413
827	1.403
827.5	1.396
828	1.397
828.5	1.407
829	1.411
829.5	1.409
830	1.405
830.5	1.408
831	1.406
831.5	1.402
832	1.391
832.5	1.39
833	1.388
833.5	1.381
834	1.379
834.5	1.375
835	1.368
835.5	1.372
836	1.374
836.5	1.372
837	1.376
837.5	1.387
838	1.402
838.5	1.409
839	1.413
839.5	1.412
840	1.402
840.5	1.403
841	1.397
841.5	1.385
842	1.369
842.5	1.365
843	1.369
843.5	1.37
844	1.367
844.5	1.355
845	1.35
845.5	1.352
846	1.355
846.5	1.353
847	1.35
847.5	1.36
848	1.366
848.5	1.376
849	1.381
849.5	1.368
850	1.349
	
	
WT 0.0035M 1:1 sucrose:trehalose	
4/4/2023 5:40 PM	
Wavelength (nm)	10mm Absorbance
//WLCalib: Shift 	0.20333
//WLCalib: 261S 	-0.45
//WLCalib: 362S 	-0.7
//WLCalib: 484S 	-0.73
//WLCalib: 529S 	-0.44
//WLCalib: 823S 	-0.81
//QSpecEnd: 	
190	11.412
190.5	11.669
191	11.983
191.5	12.197
192	12.524
192.5	12.541
193	12.464
193.5	12.453
194	12.377
194.5	12.434
195	12.515
195.5	12.87
196	12.958
196.5	13.023
197	13.324
197.5	13.142
198	13.098
198.5	13.173
199	13.329
199.5	13.459
200	13.729
200.5	13.846
201	13.676
201.5	13.812
202	13.982
202.5	13.872
203	14.238
203.5	14.468
204	14.864
204.5	15.117
205	15.293
205.5	15.46
206	15.469
206.5	15.476
207	15.451
207.5	15.477
208	15.545
208.5	15.519
209	15.576
209.5	15.701
210	15.679
210.5	15.894
211	15.73
211.5	15.477
212	15.312
212.5	14.993
213	14.584
213.5	14.189
214	13.826
214.5	13.41
215	12.948
215.5	12.65
216	12.211
216.5	11.822
217	11.415
217.5	11.063
218	10.72
218.5	10.34
219	9.948
219.5	9.551
220	9.124
220.5	8.736
221	8.378
221.5	8.008
222	7.67
222.5	7.366
223	7.059
223.5	6.739
224	6.436
224.5	6.121
225	5.815
225.5	5.523
226	5.229
226.5	4.945
227	4.685
227.5	4.449
228	4.238
228.5	4.061
229	3.913
229.5	3.776
230	3.657
230.5	3.544
231	3.427
231.5	3.3
232	3.173
232.5	3.054
233	2.929
233.5	2.817
234	2.713
234.5	2.62
235	2.543
235.5	2.471
236	2.409
236.5	2.354
237	2.311
237.5	2.269
238	2.227
238.5	2.184
239	2.145
239.5	2.111
240	2.08
240.5	2.044
241	2.016
241.5	1.993
242	1.974
242.5	1.958
243	1.943
243.5	1.928
244	1.922
244.5	1.914
245	1.904
245.5	1.891
246	1.882
246.5	1.873
247	1.864
247.5	1.859
248	1.853
248.5	1.85
249	1.855
249.5	1.861
250	1.861
250.5	1.858
251	1.854
251.5	1.85
252	1.848
252.5	1.844
253	1.843
253.5	1.841
254	1.845
254.5	1.843
255	1.841
255.5	1.838
256	1.838
256.5	1.839
257	1.838
257.5	1.835
258	1.835
258.5	1.83
259	1.825
259.5	1.818
260	1.819
260.5	1.818
261	1.819
261.5	1.82
262	1.822
262.5	1.825
263	1.831
263.5	1.831
264	1.829
264.5	1.827
265	1.827
265.5	1.825
266	1.822
266.5	1.821
267	1.818
267.5	1.816
268	1.818
268.5	1.817
269	1.815
269.5	1.816
270	1.816
270.5	1.815
271	1.814
271.5	1.809
272	1.805
272.5	1.8
273	1.802
273.5	1.805
274	1.802
274.5	1.804
275	1.803
275.5	1.805
276	1.807
276.5	1.8
277	1.799
277.5	1.797
278	1.8
278.5	1.799
279	1.794
279.5	1.792
280	1.789
280.5	1.789
281	1.781
281.5	1.771
282	1.767
282.5	1.764
283	1.761
283.5	1.76
284	1.761
284.5	1.758
285	1.759
285.5	1.758
286	1.755
286.5	1.749
287	1.743
287.5	1.74
288	1.74
288.5	1.741
289	1.742
289.5	1.74
290	1.742
290.5	1.735
291	1.731
291.5	1.722
292	1.712
292.5	1.709
293	1.707
293.5	1.701
294	1.699
294.5	1.7
295	1.695
295.5	1.688
296	1.684
296.5	1.68
297	1.677
297.5	1.678
298	1.673
298.5	1.668
299	1.665
299.5	1.665
300	1.662
300.5	1.659
301	1.656
301.5	1.654
302	1.651
302.5	1.648
303	1.646
303.5	1.639
304	1.634
304.5	1.634
305	1.63
305.5	1.623
306	1.618
306.5	1.613
307	1.611
307.5	1.608
308	1.608
308.5	1.603
309	1.601
309.5	1.598
310	1.592
310.5	1.585
311	1.579
311.5	1.577
312	1.573
312.5	1.566
313	1.562
313.5	1.56
314	1.557
314.5	1.555
315	1.555
315.5	1.556
316	1.553
316.5	1.551
317	1.546
317.5	1.542
318	1.537
318.5	1.533
319	1.531
319.5	1.529
320	1.529
320.5	1.525
321	1.52
321.5	1.518
322	1.512
322.5	1.507
323	1.504
323.5	1.501
324	1.501
324.5	1.495
325	1.496
325.5	1.493
326	1.493
326.5	1.49
327	1.484
327.5	1.481
328	1.478
328.5	1.477
329	1.476
329.5	1.478
330	1.48
330.5	1.475
331	1.473
331.5	1.47
332	1.467
332.5	1.464
333	1.46
333.5	1.456
334	1.45
334.5	1.445
335	1.437
335.5	1.436
336	1.44
336.5	1.444
337	1.445
337.5	1.448
338	1.447
338.5	1.442
339	1.442
339.5	1.436
340	1.433
340.5	1.434
341	1.434
341.5	1.431
342	1.426
342.5	1.425
343	1.422
343.5	1.418
344	1.416
344.5	1.415
345	1.413
345.5	1.41
346	1.41
346.5	1.408
347	1.404
347.5	1.403
348	1.403
348.5	1.398
349	1.396
349.5	1.393
350	1.389
350.5	1.384
351	1.382
351.5	1.377
352	1.374
352.5	1.374
353	1.374
353.5	1.37
354	1.371
354.5	1.371
355	1.37
355.5	1.368
356	1.367
356.5	1.363
357	1.361
357.5	1.357
358	1.351
358.5	1.349
359	1.347
359.5	1.347
360	1.345
360.5	1.343
361	1.34
361.5	1.336
362	1.333
362.5	1.329
363	1.326
363.5	1.326
364	1.322
364.5	1.322
365	1.321
365.5	1.324
366	1.326
366.5	1.325
367	1.326
367.5	1.323
368	1.317
368.5	1.312
369	1.311
369.5	1.307
370	1.305
370.5	1.303
371	1.306
371.5	1.305
372	1.302
372.5	1.297
373	1.293
373.5	1.294
374	1.294
374.5	1.293
375	1.289
375.5	1.288
376	1.294
376.5	1.29
377	1.288
377.5	1.291
378	1.29
378.5	1.29
379	1.287
379.5	1.286
380	1.281
380.5	1.279
381	1.28
381.5	1.276
382	1.275
382.5	1.278
383	1.275
383.5	1.272
384	1.271
384.5	1.269
385	1.269
385.5	1.269
386	1.273
386.5	1.274
387	1.273
387.5	1.279
388	1.275
388.5	1.273
389	1.269
389.5	1.265
390	1.264
390.5	1.261
391	1.259
391.5	1.256
392	1.253
392.5	1.256
393	1.257
393.5	1.258
394	1.259
394.5	1.259
395	1.259
395.5	1.258
396	1.255
396.5	1.251
397	1.248
397.5	1.246
398	1.246
398.5	1.245
399	1.244
399.5	1.244
400	1.245
400.5	1.244
401	1.242
401.5	1.241
402	1.239
402.5	1.235
403	1.235
403.5	1.232
404	1.231
404.5	1.231
405	1.231
405.5	1.231
406	1.232
406.5	1.235
407	1.234
407.5	1.233
408	1.238
408.5	1.236
409	1.235
409.5	1.234
410	1.228
410.5	1.227
411	1.227
411.5	1.229
412	1.23
412.5	1.235
413	1.237
413.5	1.236
414	1.234
414.5	1.231
415	1.228
415.5	1.228
416	1.231
416.5	1.234
417	1.235
417.5	1.235
418	1.234
418.5	1.234
419	1.234
419.5	1.234
420	1.233
420.5	1.233
421	1.235
421.5	1.234
422	1.233
422.5	1.233
423	1.233
423.5	1.233
424	1.235
424.5	1.237
425	1.236
425.5	1.235
426	1.235
426.5	1.233
427	1.233
427.5	1.233
428	1.233
428.5	1.235
429	1.237
429.5	1.238
430	1.239
430.5	1.24
431	1.24
431.5	1.24
432	1.241
432.5	1.241
433	1.243
433.5	1.246
434	1.245
434.5	1.245
435	1.248
435.5	1.247
436	1.246
436.5	1.244
437	1.243
437.5	1.243
438	1.246
438.5	1.25
439	1.254
439.5	1.257
440	1.259
440.5	1.26
441	1.261
441.5	1.263
442	1.264
442.5	1.264
443	1.267
443.5	1.265
444	1.266
444.5	1.265
445	1.263
445.5	1.264
446	1.264
446.5	1.264
447	1.26
447.5	1.256
448	1.252
448.5	1.249
449	1.249
449.5	1.252
450	1.252
450.5	1.253
451	1.253
451.5	1.254
452	1.254
452.5	1.25
453	1.248
453.5	1.245
454	1.242
454.5	1.24
455	1.236
455.5	1.234
456	1.233
456.5	1.234
457	1.233
457.5	1.229
458	1.224
458.5	1.219
459	1.217
459.5	1.217
460	1.215
460.5	1.216
461	1.216
461.5	1.215
462	1.217
462.5	1.219
463	1.223
463.5	1.225
464	1.225
464.5	1.224
465	1.222
465.5	1.219
466	1.213
466.5	1.206
467	1.204
467.5	1.204
468	1.204
468.5	1.2
469	1.199
469.5	1.201
470	1.202
470.5	1.201
471	1.2
471.5	1.201
472	1.196
472.5	1.196
473	1.194
473.5	1.191
474	1.19
474.5	1.192
475	1.19
475.5	1.188
476	1.187
476.5	1.187
477	1.184
477.5	1.183
478	1.182
478.5	1.18
479	1.179
479.5	1.18
480	1.177
480.5	1.173
481	1.174
481.5	1.175
482	1.175
482.5	1.175
483	1.175
483.5	1.176
484	1.176
484.5	1.176
485	1.175
485.5	1.171
486	1.171
486.5	1.171
487	1.169
487.5	1.167
488	1.17
488.5	1.17
489	1.169
489.5	1.171
490	1.172
490.5	1.17
491	1.169
491.5	1.167
492	1.162
492.5	1.161
493	1.161
493.5	1.16
494	1.16
494.5	1.162
495	1.164
495.5	1.164
496	1.165
496.5	1.159
497	1.157
497.5	1.157
498	1.155
498.5	1.155
499	1.154
499.5	1.154
500	1.154
500.5	1.157
501	1.158
501.5	1.158
502	1.16
502.5	1.16
503	1.16
503.5	1.156
504	1.154
504.5	1.148
505	1.145
505.5	1.14
506	1.141
506.5	1.139
507	1.139
507.5	1.136
508	1.134
508.5	1.129
509	1.131
509.5	1.128
510	1.128
510.5	1.128
511	1.133
511.5	1.136
512	1.139
512.5	1.139
513	1.135
513.5	1.127
514	1.122
514.5	1.116
515	1.115
515.5	1.117
516	1.116
516.5	1.118
517	1.12
517.5	1.124
518	1.121
518.5	1.116
519	1.115
519.5	1.11
520	1.11
520.5	1.112
521	1.109
521.5	1.106
522	1.107
522.5	1.111
523	1.112
523.5	1.109
524	1.111
524.5	1.11
525	1.11
525.5	1.11
526	1.107
526.5	1.104
527	1.103
527.5	1.099
528	1.095
528.5	1.09
529	1.088
529.5	1.089
530	1.088
530.5	1.09
531	1.095
531.5	1.095
532	1.092
532.5	1.09
533	1.088
533.5	1.082
534	1.078
534.5	1.075
535	1.074
535.5	1.075
536	1.077
536.5	1.076
537	1.078
537.5	1.079
538	1.081
538.5	1.076
539	1.076
539.5	1.075
540	1.072
540.5	1.07
541	1.068
541.5	1.067
542	1.066
542.5	1.067
543	1.067
543.5	1.064
544	1.064
544.5	1.063
545	1.063
545.5	1.062
546	1.063
546.5	1.061
547	1.056
547.5	1.053
548	1.051
548.5	1.044
549	1.04
549.5	1.038
550	1.039
550.5	1.039
551	1.047
551.5	1.046
552	1.043
552.5	1.04
553	1.037
553.5	1.032
554	1.029
554.5	1.029
555	1.031
555.5	1.031
556	1.032
556.5	1.029
557	1.025
557.5	1.023
558	1.023
558.5	1.023
559	1.026
559.5	1.028
560	1.03
560.5	1.028
561	1.026
561.5	1.022
562	1.022
562.5	1.022
563	1.025
563.5	1.024
564	1.025
564.5	1.024
565	1.023
565.5	1.021
566	1.021
566.5	1.02
567	1.022
567.5	1.019
568	1.014
568.5	1.015
569	1.015
569.5	1.012
570	1.006
570.5	1
571	0.996
571.5	1
572	1.003
572.5	1.004
573	1.008
573.5	1.014
574	1.016
574.5	1.015
575	1.011
575.5	1.007
576	1.002
576.5	1.004
577	1.008
577.5	1.009
578	1.008
578.5	1.008
579	1.002
579.5	1.003
580	1.004
580.5	1.007
581	1.007
581.5	1.008
582	1.012
582.5	1.011
583	1.008
583.5	1.006
584	1.003
584.5	1.003
585	1.002
585.5	0.997
586	0.994
586.5	0.99
587	0.988
587.5	0.99
588	0.99
588.5	0.994
589	0.994
589.5	0.994
590	0.994
590.5	0.991
591	0.993
591.5	0.992
592	0.991
592.5	0.994
593	0.993
593.5	0.992
594	0.986
594.5	0.983
595	0.987
595.5	0.99
596	0.993
596.5	0.993
597	0.994
597.5	0.995
598	0.995
598.5	0.992
599	0.99
599.5	0.99
600	0.992
600.5	0.99
601	0.989
601.5	0.988
602	0.994
602.5	0.994
603	0.99
603.5	0.983
604	0.982
604.5	0.984
605	0.983
605.5	0.981
606	0.985
606.5	0.987
607	0.997
607.5	0.996
608	0.992
608.5	0.988
609	0.988
609.5	0.99
610	0.993
610.5	0.997
611	1
611.5	1.002
612	1.004
612.5	1.005
613	1.005
613.5	1.004
614	1.003
614.5	1.006
615	1.011
615.5	1.014
616	1.018
616.5	1.022
617	1.022
617.5	1.018
618	1.012
618.5	1.004
619	0.996
619.5	0.992
620	0.988
620.5	0.985
621	0.989
621.5	0.996
622	1.001
622.5	1.003
623	1
623.5	1.003
624	1.002
624.5	1.001
625	1.002
625.5	1.004
626	1.006
626.5	1.013
627	1.016
627.5	1.018
628	1.016
628.5	1.014
629	1.016
629.5	1.016
630	1.017
630.5	1.021
631	1.016
631.5	1.018
632	1.021
632.5	1.025
633	1.019
633.5	1.016
634	1.013
634.5	1.014
635	1.011
635.5	1.007
636	0.999
636.5	1.001
637	0.999
637.5	0.999
638	0.998
638.5	1.002
639	1.003
639.5	1.007
640	1.009
640.5	1.001
641	0.997
641.5	0.996
642	0.996
642.5	0.994
643	1.001
643.5	1.005
644	1.005
644.5	1.008
645	1.009
645.5	1.003
646	0.996
646.5	0.991
647	0.988
647.5	0.987
648	0.991
648.5	0.993
649	0.997
649.5	0.999
650	1.001
650.5	0.998
651	0.988
651.5	0.981
652	0.975
652.5	0.972
653	0.969
653.5	0.973
654	0.975
654.5	0.973
655	0.97
655.5	0.974
656	0.975
656.5	0.971
657	0.974
657.5	0.975
658	0.972
658.5	0.97
659	0.971
659.5	0.971
660	0.969
660.5	0.974
661	0.978
661.5	0.977
662	0.977
662.5	0.98
663	0.976
663.5	0.97
664	0.97
664.5	0.97
665	0.977
665.5	0.983
666	0.99
666.5	0.995
667	0.997
667.5	1.001
668	1
668.5	0.994
669	0.993
669.5	0.993
670	0.991
670.5	0.993
671	0.992
671.5	0.992
672	0.994
672.5	0.994
673	0.998
673.5	0.996
674	0.995
674.5	1
675	1.001
675.5	1.001
676	0.997
676.5	1.005
677	1.008
677.5	1.014
678	1.019
678.5	1.017
679	1.023
679.5	1.032
680	1.035
680.5	1.039
681	1.037
681.5	1.046
682	1.047
682.5	1.051
683	1.048
683.5	1.046
684	1.044
684.5	1.04
685	1.036
685.5	1.038
686	1.036
686.5	1.034
687	1.029
687.5	1.033
688	1.035
688.5	1.035
689	1.033
689.5	1.033
690	1.034
690.5	1.032
691	1.029
691.5	1.017
692	1.01
692.5	1.009
693	1.008
693.5	1.006
694	1.003
694.5	1.005
695	1.003
695.5	1.002
696	0.995
696.5	0.991
697	0.989
697.5	0.99
698	0.989
698.5	0.991
699	0.99
699.5	0.986
700	0.97
700.5	0.965
701	0.961
701.5	0.957
702	0.951
702.5	0.952
703	0.951
703.5	0.957
704	0.962
704.5	0.961
705	0.954
705.5	0.954
706	0.952
706.5	0.944
707	0.933
707.5	0.924
708	0.91
708.5	0.905
709	0.9
709.5	0.907
710	0.914
710.5	0.92
711	0.92
711.5	0.926
712	0.928
712.5	0.918
713	0.913
713.5	0.907
714	0.902
714.5	0.904
715	0.901
715.5	0.896
716	0.889
716.5	0.893
717	0.892
717.5	0.889
718	0.896
718.5	0.904
719	0.911
719.5	0.917
720	0.921
720.5	0.919
721	0.913
721.5	0.913
722	0.909
722.5	0.902
723	0.904
723.5	0.902
724	0.901
724.5	0.901
725	0.895
725.5	0.883
726	0.879
726.5	0.875
727	0.873
727.5	0.87
728	0.872
728.5	0.871
729	0.878
729.5	0.884
730	0.881
730.5	0.873
731	0.87
731.5	0.866
732	0.865
732.5	0.859
733	0.854
733.5	0.856
734	0.859
734.5	0.866
735	0.865
735.5	0.86
736	0.859
736.5	0.858
737	0.858
737.5	0.85
738	0.851
738.5	0.858
739	0.863
739.5	0.869
740	0.873
740.5	0.877
741	0.877
741.5	0.871
742	0.861
742.5	0.855
743	0.856
743.5	0.851
744	0.838
744.5	0.833
745	0.833
745.5	0.843
746	0.849
746.5	0.86
747	0.863
747.5	0.868
748	0.871
748.5	0.86
749	0.845
749.5	0.837
750	0.831
750.5	0.828
751	0.827
751.5	0.832
752	0.833
752.5	0.835
753	0.834
753.5	0.831
754	0.832
754.5	0.826
755	0.823
755.5	0.817
756	0.82
756.5	0.829
757	0.832
757.5	0.838
758	0.84
758.5	0.843
759	0.841
759.5	0.83
760	0.828
760.5	0.826
761	0.827
761.5	0.833
762	0.832
762.5	0.834
763	0.833
763.5	0.835
764	0.831
764.5	0.827
765	0.83
765.5	0.834
766	0.837
766.5	0.837
767	0.828
767.5	0.812
768	0.805
768.5	0.805
769	0.802
769.5	0.8
770	0.801
770.5	0.811
771	0.817
771.5	0.813
772	0.813
772.5	0.813
773	0.826
773.5	0.839
774	0.846
774.5	0.842
775	0.842
775.5	0.845
776	0.841
776.5	0.826
777	0.826
777.5	0.825
778	0.828
778.5	0.827
779	0.823
779.5	0.82
780	0.821
780.5	0.82
781	0.817
781.5	0.812
782	0.809
782.5	0.806
783	0.81
783.5	0.798
784	0.793
784.5	0.795
785	0.792
785.5	0.792
786	0.792
786.5	0.795
787	0.794
787.5	0.797
788	0.802
788.5	0.791
789	0.789
789.5	0.786
790	0.782
790.5	0.778
791	0.772
791.5	0.772
792	0.773
792.5	0.782
793	0.79
793.5	0.789
794	0.787
794.5	0.789
795	0.79
795.5	0.789
796	0.785
796.5	0.776
797	0.775
797.5	0.781
798	0.782
798.5	0.774
799	0.767
799.5	0.769
800	0.77
800.5	0.776
801	0.777
801.5	0.787
802	0.8
802.5	0.81
803	0.813
803.5	0.803
804	0.791
804.5	0.783
805	0.777
805.5	0.774
806	0.774
806.5	0.785
807	0.793
807.5	0.798
808	0.787
808.5	0.769
809	0.76
809.5	0.752
810	0.753
810.5	0.752
811	0.751
811.5	0.756
812	0.76
812.5	0.764
813	0.766
813.5	0.765
814	0.758
814.5	0.759
815	0.761
815.5	0.768
816	0.766
816.5	0.767
817	0.759
817.5	0.76
818	0.763
818.5	0.753
819	0.739
819.5	0.741
820	0.745
820.5	0.752
821	0.748
821.5	0.753
822	0.755
822.5	0.764
823	0.77
823.5	0.782
824	0.795
824.5	0.797
825	0.795
825.5	0.785
826	0.77
826.5	0.763
827	0.754
827.5	0.746
828	0.74
828.5	0.748
829	0.751
829.5	0.749
830	0.745
830.5	0.745
831	0.745
831.5	0.745
832	0.739
832.5	0.745
833	0.74
833.5	0.736
834	0.732
834.5	0.727
835	0.714
835.5	0.715
836	0.714
836.5	0.72
837	0.728
837.5	0.747
838	0.753
838.5	0.76
839	0.76
839.5	0.757
840	0.748
840.5	0.738
841	0.724
841.5	0.722
842	0.719
842.5	0.72
843	0.727
843.5	0.731
844	0.727
844.5	0.722
845	0.721
845.5	0.71
846	0.713
846.5	0.719
847	0.72
847.5	0.723
848	0.73
848.5	0.728
849	0.718
849.5	0.715
850	0.701
	
	
WT 2:1 sucrose:trehalose 	
4/4/2023 5:41 PM	
Wavelength (nm)	10mm Absorbance
//WLCalib: Shift 	0.20333
//WLCalib: 261S 	-0.45
//WLCalib: 362S 	-0.7
//WLCalib: 484S 	-0.73
//WLCalib: 529S 	-0.44
//WLCalib: 823S 	-0.81
//QSpecEnd: 	
190	9.938
190.5	10.171
191	10.371
191.5	10.516
192	10.662
192.5	10.898
193	11.159
193.5	11.436
194	11.538
194.5	11.739
195	11.749
195.5	11.774
196	11.815
196.5	11.807
197	11.834
197.5	11.881
198	11.98
198.5	11.956
199	11.914
199.5	11.862
200	11.882
200.5	12.017
201	12.163
201.5	12.311
202	12.529
202.5	12.728
203	12.889
203.5	12.843
204	12.808
204.5	12.789
205	12.777
205.5	12.736
206	12.681
206.5	12.606
207	12.557
207.5	12.471
208	12.36
208.5	12.291
209	12.188
209.5	12.09
210	11.97
210.5	11.854
211	11.715
211.5	11.484
212	11.21
212.5	11.005
213	10.725
213.5	10.488
214	10.147
214.5	9.863
215	9.576
215.5	9.299
216	9.034
216.5	8.758
217	8.51
217.5	8.257
218	7.959
218.5	7.7
219	7.402
219.5	7.127
220	6.85
220.5	6.592
221	6.359
221.5	6.13
222	5.896
222.5	5.675
223	5.446
223.5	5.242
224	5.047
224.5	4.848
225	4.651
225.5	4.459
226	4.268
226.5	4.085
227	3.911
227.5	3.757
228	3.609
228.5	3.494
229	3.396
229.5	3.306
230	3.228
230.5	3.151
231	3.073
231.5	2.987
232	2.898
232.5	2.817
233	2.732
233.5	2.657
234	2.589
234.5	2.525
235	2.478
235.5	2.431
236	2.387
236.5	2.345
237	2.309
237.5	2.281
238	2.251
238.5	2.222
239	2.199
239.5	2.172
240	2.156
240.5	2.134
241	2.112
241.5	2.096
242	2.085
242.5	2.077
243	2.064
243.5	2.049
244	2.041
244.5	2.03
245	2.024
245.5	2.017
246	2.014
246.5	2.015
247	2.017
247.5	2.02
248	2.017
248.5	2.011
249	2.01
249.5	2.011
250	2.01
250.5	2.008
251	2.006
251.5	2.004
252	2.007
252.5	2.006
253	2.006
253.5	2.003
254	2.002
254.5	2.002
255	1.999
255.5	1.998
256	1.997
256.5	2.001
257	2
257.5	1.999
258	1.999
258.5	1.996
259	1.995
259.5	1.991
260	1.991
260.5	1.991
261	1.992
261.5	1.997
262	1.992
262.5	1.996
263	1.994
263.5	1.995
264	1.991
264.5	1.989
265	1.989
265.5	1.988
266	1.987
266.5	1.988
267	1.989
267.5	1.995
268	1.997
268.5	2.001
269	2
269.5	2.001
270	1.998
270.5	1.993
271	1.99
271.5	1.985
272	1.984
272.5	1.981
273	1.983
273.5	1.984
274	1.981
274.5	1.981
275	1.98
275.5	1.979
276	1.984
276.5	1.977
277	1.975
277.5	1.972
278	1.972
278.5	1.97
279	1.969
279.5	1.967
280	1.965
280.5	1.966
281	1.967
281.5	1.962
282	1.959
282.5	1.955
283	1.953
283.5	1.951
284	1.949
284.5	1.943
285	1.941
285.5	1.941
286	1.936
286.5	1.927
287	1.921
287.5	1.915
288	1.915
288.5	1.915
289	1.917
289.5	1.919
290	1.924
290.5	1.926
291	1.922
291.5	1.915
292	1.909
292.5	1.902
293	1.898
293.5	1.893
294	1.89
294.5	1.889
295	1.888
295.5	1.884
296	1.878
296.5	1.874
297	1.872
297.5	1.872
298	1.871
298.5	1.869
299	1.868
299.5	1.866
300	1.863
300.5	1.859
301	1.856
301.5	1.853
302	1.854
302.5	1.852
303	1.854
303.5	1.854
304	1.852
304.5	1.852
305	1.852
305.5	1.847
306	1.843
306.5	1.835
307	1.833
307.5	1.832
308	1.831
308.5	1.83
309	1.827
309.5	1.827
310	1.823
310.5	1.82
311	1.816
311.5	1.811
312	1.806
312.5	1.803
313	1.801
313.5	1.803
314	1.803
314.5	1.804
315	1.807
315.5	1.81
316	1.809
316.5	1.808
317	1.804
317.5	1.8
318	1.795
318.5	1.791
319	1.794
319.5	1.795
320	1.796
320.5	1.795
321	1.794
321.5	1.794
322	1.794
322.5	1.788
323	1.78
323.5	1.776
324	1.778
324.5	1.775
325	1.77
325.5	1.769
326	1.771
326.5	1.772
327	1.774
327.5	1.773
328	1.776
328.5	1.782
329	1.783
329.5	1.781
330	1.773
330.5	1.77
331	1.764
331.5	1.761
332	1.76
332.5	1.758
333	1.76
333.5	1.763
334	1.761
334.5	1.757
335	1.755
335.5	1.755
336	1.757
336.5	1.761
337	1.763
337.5	1.763
338	1.763
338.5	1.764
339	1.765
339.5	1.76
340	1.759
340.5	1.756
341	1.754
341.5	1.752
342	1.748
342.5	1.748
343	1.746
343.5	1.744
344	1.745
344.5	1.746
345	1.746
345.5	1.744
346	1.747
346.5	1.75
347	1.751
347.5	1.747
348	1.743
348.5	1.741
349	1.741
349.5	1.735
350	1.729
350.5	1.725
351	1.724
351.5	1.721
352	1.718
352.5	1.715
353	1.721
353.5	1.727
354	1.731
354.5	1.728
355	1.728
355.5	1.724
356	1.719
356.5	1.712
357	1.709
357.5	1.705
358	1.706
358.5	1.71
359	1.711
359.5	1.712
360	1.711
360.5	1.707
361	1.704
361.5	1.7
362	1.703
362.5	1.704
363	1.706
363.5	1.708
364	1.705
364.5	1.706
365	1.7
365.5	1.698
366	1.693
366.5	1.688
367	1.691
367.5	1.688
368	1.685
368.5	1.682
369	1.682
369.5	1.681
370	1.681
370.5	1.686
371	1.689
371.5	1.692
372	1.694
372.5	1.689
373	1.683
373.5	1.682
374	1.68
374.5	1.679
375	1.68
375.5	1.682
376	1.688
376.5	1.691
377	1.693
377.5	1.69
378	1.687
378.5	1.688
379	1.685
379.5	1.685
380	1.682
380.5	1.682
381	1.685
381.5	1.684
382	1.681
382.5	1.681
383	1.682
383.5	1.679
384	1.678
384.5	1.675
385	1.67
385.5	1.671
386	1.675
386.5	1.676
387	1.674
387.5	1.677
388	1.677
388.5	1.677
389	1.679
389.5	1.679
390	1.681
390.5	1.683
391	1.682
391.5	1.679
392	1.678
392.5	1.676
393	1.676
393.5	1.677
394	1.678
394.5	1.68
395	1.678
395.5	1.674
396	1.669
396.5	1.666
397	1.667
397.5	1.666
398	1.667
398.5	1.667
399	1.668
399.5	1.668
400	1.668
400.5	1.667
401	1.667
401.5	1.666
402	1.665
402.5	1.662
403	1.661
403.5	1.657
404	1.656
404.5	1.655
405	1.657
405.5	1.655
406	1.656
406.5	1.658
407	1.658
407.5	1.658
408	1.657
408.5	1.659
409	1.66
409.5	1.66
410	1.658
410.5	1.658
411	1.664
411.5	1.667
412	1.667
412.5	1.67
413	1.671
413.5	1.675
414	1.673
414.5	1.67
415	1.67
415.5	1.675
416	1.681
416.5	1.683
417	1.682
417.5	1.682
418	1.683
418.5	1.683
419	1.681
419.5	1.679
420	1.679
420.5	1.677
421	1.679
421.5	1.68
422	1.677
422.5	1.678
423	1.68
423.5	1.682
424	1.685
424.5	1.688
425	1.688
425.5	1.687
426	1.688
426.5	1.688
427	1.684
427.5	1.684
428	1.681
428.5	1.682
429	1.686
429.5	1.69
430	1.692
430.5	1.693
431	1.697
431.5	1.7
432	1.701
432.5	1.703
433	1.704
433.5	1.708
434	1.71
434.5	1.709
435	1.707
435.5	1.706
436	1.706
436.5	1.703
437	1.701
437.5	1.704
438	1.705
438.5	1.707
439	1.71
439.5	1.714
440	1.718
440.5	1.723
441	1.725
441.5	1.727
442	1.728
442.5	1.731
443	1.734
443.5	1.733
444	1.733
444.5	1.733
445	1.734
445.5	1.735
446	1.733
446.5	1.729
447	1.726
447.5	1.72
448	1.719
448.5	1.715
449	1.715
449.5	1.716
450	1.716
450.5	1.716
451	1.717
451.5	1.713
452	1.712
452.5	1.709
453	1.708
453.5	1.708
454	1.707
454.5	1.706
455	1.703
455.5	1.699
456	1.695
456.5	1.694
457	1.691
457.5	1.688
458	1.681
458.5	1.677
459	1.674
459.5	1.672
460	1.667
460.5	1.668
461	1.669
461.5	1.669
462	1.673
462.5	1.673
463	1.672
463.5	1.668
464	1.665
464.5	1.664
465	1.662
465.5	1.663
466	1.663
466.5	1.66
467	1.661
467.5	1.663
468	1.661
468.5	1.654
469	1.651
469.5	1.649
470	1.649
470.5	1.65
471	1.651
471.5	1.65
472	1.648
472.5	1.649
473	1.645
473.5	1.641
474	1.641
474.5	1.641
475	1.642
475.5	1.64
476	1.638
476.5	1.633
477	1.627
477.5	1.625
478	1.621
478.5	1.62
479	1.62
479.5	1.624
480	1.624
480.5	1.621
481	1.623
481.5	1.624
482	1.622
482.5	1.621
483	1.621
483.5	1.621
484	1.622
484.5	1.623
485	1.622
485.5	1.619
486	1.622
486.5	1.625
487	1.626
487.5	1.627
488	1.631
488.5	1.629
489	1.628
489.5	1.625
490	1.621
490.5	1.614
491	1.61
491.5	1.608
492	1.605
492.5	1.605
493	1.608
493.5	1.608
494	1.61
494.5	1.612
495	1.613
495.5	1.612
496	1.614
496.5	1.612
497	1.61
497.5	1.609
498	1.612
498.5	1.612
499	1.614
499.5	1.61
500	1.606
500.5	1.604
501	1.601
501.5	1.597
502	1.594
502.5	1.593
503	1.595
503.5	1.593
504	1.592
504.5	1.589
505	1.586
505.5	1.582
506	1.585
506.5	1.585
507	1.581
507.5	1.578
508	1.573
508.5	1.564
509	1.559
509.5	1.555
510	1.555
510.5	1.559
511	1.569
511.5	1.574
512	1.575
512.5	1.576
513	1.573
513.5	1.566
514	1.558
514.5	1.553
515	1.554
515.5	1.556
516	1.557
516.5	1.555
517	1.556
517.5	1.559
518	1.556
518.5	1.553
519	1.55
519.5	1.545
520	1.547
520.5	1.549
521	1.549
521.5	1.547
522	1.548
522.5	1.549
523	1.546
523.5	1.542
524	1.54
524.5	1.538
525	1.538
525.5	1.536
526	1.536
526.5	1.533
527	1.533
527.5	1.531
528	1.524
528.5	1.52
529	1.519
529.5	1.522
530	1.522
530.5	1.523
531	1.525
531.5	1.525
532	1.525
532.5	1.521
533	1.516
533.5	1.512
534	1.51
534.5	1.51
535	1.51
535.5	1.512
536	1.512
536.5	1.513
537	1.514
537.5	1.51
538	1.508
538.5	1.503
539	1.498
539.5	1.493
540	1.489
540.5	1.49
541	1.49
541.5	1.49
542	1.492
542.5	1.492
543	1.492
543.5	1.49
544	1.488
544.5	1.482
545	1.482
545.5	1.482
546	1.481
546.5	1.475
547	1.47
547.5	1.468
548	1.469
548.5	1.464
549	1.46
549.5	1.46
550	1.46
550.5	1.461
551	1.462
551.5	1.458
552	1.452
552.5	1.452
553	1.447
553.5	1.437
554	1.434
554.5	1.432
555	1.435
555.5	1.435
556	1.438
556.5	1.438
557	1.437
557.5	1.439
558	1.44
558.5	1.442
559	1.448
559.5	1.448
560	1.451
560.5	1.446
561	1.447
561.5	1.442
562	1.44
562.5	1.437
563	1.436
563.5	1.432
564	1.43
564.5	1.426
565	1.427
565.5	1.425
566	1.426
566.5	1.427
567	1.428
567.5	1.425
568	1.422
568.5	1.419
569	1.417
569.5	1.416
570	1.418
570.5	1.415
571	1.415
571.5	1.419
572	1.42
572.5	1.419
573	1.42
573.5	1.425
574	1.424
574.5	1.421
575	1.419
575.5	1.413
576	1.409
576.5	1.411
577	1.413
577.5	1.412
578	1.411
578.5	1.411
579	1.408
579.5	1.407
580	1.407
580.5	1.408
581	1.408
581.5	1.408
582	1.41
582.5	1.408
583	1.405
583.5	1.405
584	1.408
584.5	1.408
585	1.407
585.5	1.403
586	1.397
586.5	1.39
587	1.387
587.5	1.386
588	1.386
588.5	1.391
589	1.397
589.5	1.399
590	1.402
590.5	1.405
591	1.406
591.5	1.408
592	1.407
592.5	1.408
593	1.406
593.5	1.403
594	1.399
594.5	1.397
595	1.402
595.5	1.403
596	1.404
596.5	1.406
597	1.405
597.5	1.402
598	1.4
598.5	1.397
599	1.398
599.5	1.397
600	1.4
600.5	1.399
601	1.399
601.5	1.402
602	1.403
602.5	1.401
603	1.391
603.5	1.388
604	1.388
604.5	1.388
605	1.389
605.5	1.392
606	1.398
606.5	1.404
607	1.412
607.5	1.412
608	1.408
608.5	1.407
609	1.409
609.5	1.41
610	1.409
610.5	1.409
611	1.411
611.5	1.409
612	1.409
612.5	1.411
613	1.412
613.5	1.411
614	1.409
614.5	1.409
615	1.409
615.5	1.411
616	1.411
616.5	1.41
617	1.411
617.5	1.416
618	1.42
618.5	1.423
619	1.424
619.5	1.424
620	1.425
620.5	1.422
621	1.419
621.5	1.419
622	1.419
622.5	1.423
623	1.425
623.5	1.426
624	1.424
624.5	1.417
625	1.415
625.5	1.411
626	1.412
626.5	1.417
627	1.417
627.5	1.424
628	1.426
628.5	1.425
629	1.426
629.5	1.427
630	1.432
630.5	1.439
631	1.44
631.5	1.443
632	1.444
632.5	1.442
633	1.437
633.5	1.428
634	1.422
634.5	1.418
635	1.417
635.5	1.42
636	1.421
636.5	1.42
637	1.427
637.5	1.428
638	1.427
638.5	1.427
639	1.424
639.5	1.425
640	1.427
640.5	1.426
641	1.427
641.5	1.424
642	1.42
642.5	1.417
643	1.414
643.5	1.411
644	1.41
644.5	1.413
645	1.415
645.5	1.412
646	1.414
646.5	1.411
647	1.41
647.5	1.406
648	1.407
648.5	1.41
649	1.413
649.5	1.408
650	1.403
650.5	1.399
651	1.394
651.5	1.385
652	1.384
652.5	1.381
653	1.383
653.5	1.39
654	1.389
654.5	1.381
655	1.385
655.5	1.385
656	1.389
656.5	1.383
657	1.388
657.5	1.391
658	1.394
658.5	1.394
659	1.39
659.5	1.386
660	1.387
660.5	1.385
661	1.389
661.5	1.387
662	1.384
662.5	1.386
663	1.384
663.5	1.378
664	1.371
664.5	1.37
665	1.369
665.5	1.37
666	1.378
666.5	1.383
667	1.383
667.5	1.387
668	1.387
668.5	1.387
669	1.394
669.5	1.404
670	1.406
670.5	1.41
671	1.413
671.5	1.413
672	1.41
672.5	1.41
673	1.409
673.5	1.404
674	1.406
674.5	1.409
675	1.406
675.5	1.406
676	1.403
676.5	1.406
677	1.409
677.5	1.417
678	1.422
678.5	1.423
679	1.424
679.5	1.429
680	1.441
680.5	1.449
681	1.453
681.5	1.464
682	1.468
682.5	1.471
683	1.468
683.5	1.466
684	1.459
684.5	1.453
685	1.455
685.5	1.459
686	1.456
686.5	1.46
687	1.457
687.5	1.462
688	1.464
688.5	1.468
689	1.463
689.5	1.457
690	1.454
690.5	1.45
691	1.439
691.5	1.425
692	1.419
692.5	1.416
693	1.416
693.5	1.417
694	1.414
694.5	1.411
695	1.41
695.5	1.412
696	1.409
696.5	1.403
697	1.396
697.5	1.389
698	1.386
698.5	1.384
699	1.38
699.5	1.372
700	1.357
700.5	1.352
701	1.355
701.5	1.35
702	1.346
702.5	1.351
703	1.353
703.5	1.356
704	1.362
704.5	1.36
705	1.348
705.5	1.339
706	1.334
706.5	1.322
707	1.317
707.5	1.315
708	1.301
708.5	1.296
709	1.301
709.5	1.308
710	1.31
710.5	1.31
711	1.308
711.5	1.315
712	1.315
712.5	1.311
713	1.3
713.5	1.301
714	1.308
714.5	1.312
715	1.308
715.5	1.297
716	1.29
716.5	1.288
717	1.274
717.5	1.259
718	1.251
718.5	1.257
719	1.266
719.5	1.275
720	1.283
720.5	1.285
721	1.29
721.5	1.294
722	1.29
722.5	1.277
723	1.272
723.5	1.268
724	1.262
724.5	1.256
725	1.254
725.5	1.245
726	1.245
726.5	1.251
727	1.256
727.5	1.253
728	1.258
728.5	1.253
729	1.254
729.5	1.254
730	1.251
730.5	1.25
731	1.251
731.5	1.253
732	1.255
732.5	1.251
733	1.246
733.5	1.235
734	1.228
734.5	1.224
735	1.22
735.5	1.218
736	1.216
736.5	1.22
737	1.224
737.5	1.219
738	1.22
738.5	1.23
739	1.233
739.5	1.238
740	1.242
740.5	1.241
741	1.238
741.5	1.23
742	1.219
742.5	1.208
743	1.205
743.5	1.206
744	1.197
744.5	1.195
745	1.196
745.5	1.207
746	1.211
746.5	1.213
747	1.216
747.5	1.219
748	1.218
748.5	1.212
749	1.198
749.5	1.194
750	1.187
750.5	1.182
751	1.179
751.5	1.177
752	1.177
752.5	1.17
753	1.168
753.5	1.164
754	1.161
754.5	1.165
755	1.169
755.5	1.168
756	1.174
756.5	1.174
757	1.171
757.5	1.174
758	1.178
758.5	1.182
759	1.187
759.5	1.19
760	1.198
760.5	1.198
761	1.193
761.5	1.189
762	1.188
762.5	1.193
763	1.189
763.5	1.189
764	1.188
764.5	1.184
765	1.184
765.5	1.182
766	1.179
766.5	1.183
767	1.183
767.5	1.179
768	1.173
768.5	1.169
769	1.161
769.5	1.155
770	1.15
770.5	1.15
771	1.146
771.5	1.142
772	1.143
772.5	1.147
773	1.158
773.5	1.172
774	1.182
774.5	1.187
775	1.191
775.5	1.2
776	1.196
776.5	1.186
777	1.182
777.5	1.18
778	1.183
778.5	1.178
779	1.168
779.5	1.156
780	1.146
780.5	1.142
781	1.135
781.5	1.127
782	1.127
782.5	1.131
783	1.14
783.5	1.135
784	1.133
784.5	1.135
785	1.135
785.5	1.135
786	1.138
786.5	1.143
787	1.145
787.5	1.143
788	1.135
788.5	1.12
789	1.114
789.5	1.116
790	1.109
790.5	1.109
791	1.116
791.5	1.127
792	1.132
792.5	1.133
793	1.129
793.5	1.123
794	1.117
794.5	1.113
795	1.105
795.5	1.098
796	1.1
796.5	1.103
797	1.108
797.5	1.121
798	1.119
798.5	1.112
799	1.103
799.5	1.103
800	1.1
800.5	1.097
801	1.098
801.5	1.117
802	1.136
802.5	1.147
803	1.148
803.5	1.14
804	1.134
804.5	1.133
805	1.126
805.5	1.119
806	1.112
806.5	1.113
807	1.105
807.5	1.097
808	1.086
808.5	1.071
809	1.066
809.5	1.06
810	1.065
810.5	1.072
811	1.074
811.5	1.083
812	1.09
812.5	1.103
813	1.111
813.5	1.106
814	1.096
814.5	1.087
815	1.091
815.5	1.093
816	1.091
816.5	1.107
817	1.107
817.5	1.116
818	1.114
818.5	1.098
819	1.084
819.5	1.076
820	1.072
820.5	1.061
821	1.05
821.5	1.061
822	1.065
822.5	1.081
823	1.096
823.5	1.121
824	1.141
824.5	1.146
825	1.144
825.5	1.134
826	1.113
826.5	1.101
827	1.086
827.5	1.078
828	1.071
828.5	1.078
829	1.083
829.5	1.081
830	1.083
830.5	1.087
831	1.086
831.5	1.088
832	1.079
832.5	1.078
833	1.068
833.5	1.063
834	1.062
834.5	1.053
835	1.05
835.5	1.049
836	1.053
836.5	1.06
837	1.063
837.5	1.078
838	1.088
838.5	1.095
839	1.096
839.5	1.093
840	1.087
840.5	1.076
841	1.067
841.5	1.068
842	1.056
842.5	1.055
843	1.045
843.5	1.044
844	1.039
844.5	1.03
845	1.027
845.5	1.018
846	1.024
846.5	1.037
847	1.039
847.5	1.045
848	1.047
848.5	1.053
849	1.055
849.5	1.04
850	1.038
	
	
WT 1:2 sucrose:trehalose 	
4/4/2023 5:43 PM	
Wavelength (nm)	10mm Absorbance
//WLCalib: Shift 	0.20333
//WLCalib: 261S 	-0.45
//WLCalib: 362S 	-0.7
//WLCalib: 484S 	-0.73
//WLCalib: 529S 	-0.44
//WLCalib: 823S 	-0.81
//QSpecEnd: 	
190	10.771
190.5	10.907
191	11.106
191.5	11.175
192	11.199
192.5	11.394
193	11.588
193.5	11.461
194	11.621
194.5	11.75
195	11.999
195.5	12.192
196	12.289
196.5	12.321
197	12.282
197.5	12.497
198	12.58
198.5	12.546
199	12.642
199.5	12.692
200	12.912
200.5	12.807
201	12.836
201.5	12.813
202	13.014
202.5	13.538
203	13.988
203.5	14.233
204	14.555
204.5	14.793
205	15.004
205.5	15.267
206	15.374
206.5	15.588
207	15.868
207.5	16.027
208	16.106
208.5	15.969
209	16.106
209.5	16.102
210	16.207
210.5	16.375
211	16.347
211.5	16.624
212	16.683
212.5	16.581
213	16.538
213.5	16.488
214	16.347
214.5	16.045
215	15.591
215.5	15.084
216	14.596
216.5	14.282
217	13.741
217.5	13.382
218	13.034
218.5	12.613
219	12.062
219.5	11.581
220	11.082
220.5	10.62
221	10.186
221.5	9.751
222	9.345
222.5	8.95
223	8.536
223.5	8.098
224	7.702
224.5	7.318
225	6.943
225.5	6.574
226	6.202
226.5	5.843
227	5.521
227.5	5.23
228	4.963
228.5	4.733
229	4.547
229.5	4.381
230	4.231
230.5	4.076
231	3.927
231.5	3.766
232	3.599
232.5	3.442
233	3.285
233.5	3.143
234	3.013
234.5	2.901
235	2.809
235.5	2.725
236	2.648
236.5	2.578
237	2.516
237.5	2.461
238	2.404
238.5	2.351
239	2.306
239.5	2.265
240	2.228
240.5	2.187
241	2.151
241.5	2.123
242	2.099
242.5	2.076
243	2.052
243.5	2.031
244	2.018
244.5	2.006
245	1.996
245.5	1.981
246	1.973
246.5	1.966
247	1.961
247.5	1.955
248	1.946
248.5	1.938
249	1.937
249.5	1.942
250	1.941
250.5	1.935
251	1.931
251.5	1.929
252	1.931
252.5	1.926
253	1.922
253.5	1.922
254	1.924
254.5	1.929
255	1.932
255.5	1.93
256	1.929
256.5	1.935
257	1.934
257.5	1.928
258	1.925
258.5	1.92
259	1.915
259.5	1.91
260	1.908
260.5	1.901
261	1.899
261.5	1.901
262	1.899
262.5	1.903
263	1.908
263.5	1.909
264	1.911
264.5	1.909
265	1.905
265.5	1.898
266	1.897
266.5	1.893
267	1.892
267.5	1.899
268	1.905
268.5	1.913
269	1.921
269.5	1.922
270	1.917
270.5	1.91
271	1.905
271.5	1.895
272	1.892
272.5	1.892
273	1.891
273.5	1.893
274	1.893
274.5	1.893
275	1.892
275.5	1.89
276	1.888
276.5	1.886
277	1.887
277.5	1.888
278	1.886
278.5	1.883
279	1.886
279.5	1.885
280	1.886
280.5	1.884
281	1.879
281.5	1.875
282	1.869
282.5	1.866
283	1.865
283.5	1.863
284	1.865
284.5	1.861
285	1.862
285.5	1.861
286	1.855
286.5	1.848
287	1.837
287.5	1.83
288	1.83
288.5	1.828
289	1.826
289.5	1.826
290	1.832
290.5	1.831
291	1.831
291.5	1.828
292	1.819
292.5	1.814
293	1.81
293.5	1.803
294	1.799
294.5	1.801
295	1.799
295.5	1.794
296	1.792
296.5	1.793
297	1.788
297.5	1.792
298	1.79
298.5	1.788
299	1.788
299.5	1.787
300	1.78
300.5	1.774
301	1.767
301.5	1.762
302	1.758
302.5	1.758
303	1.761
303.5	1.759
304	1.759
304.5	1.758
305	1.755
305.5	1.749
306	1.744
306.5	1.736
307	1.735
307.5	1.737
308	1.74
308.5	1.738
309	1.736
309.5	1.735
310	1.731
310.5	1.723
311	1.715
311.5	1.712
312	1.71
312.5	1.71
313	1.708
313.5	1.709
314	1.709
314.5	1.709
315	1.71
315.5	1.708
316	1.706
316.5	1.704
317	1.699
317.5	1.692
318	1.685
318.5	1.682
319	1.682
319.5	1.678
320	1.678
320.5	1.68
321	1.679
321.5	1.678
322	1.676
322.5	1.672
323	1.668
323.5	1.666
324	1.667
324.5	1.662
325	1.66
325.5	1.661
326	1.66
326.5	1.66
327	1.655
327.5	1.65
328	1.645
328.5	1.64
329	1.64
329.5	1.642
330	1.64
330.5	1.638
331	1.64
331.5	1.639
332	1.637
332.5	1.632
333	1.631
333.5	1.626
334	1.625
334.5	1.627
335	1.628
335.5	1.631
336	1.638
336.5	1.636
337	1.637
337.5	1.637
338	1.636
338.5	1.633
339	1.634
339.5	1.63
340	1.627
340.5	1.625
341	1.625
341.5	1.618
342	1.615
342.5	1.615
343	1.613
343.5	1.614
344	1.614
344.5	1.612
345	1.608
345.5	1.607
346	1.606
346.5	1.604
347	1.602
347.5	1.6
348	1.602
348.5	1.603
349	1.604
349.5	1.602
350	1.597
350.5	1.595
351	1.59
351.5	1.586
352	1.584
352.5	1.583
353	1.585
353.5	1.585
354	1.586
354.5	1.587
355	1.588
355.5	1.591
356	1.59
356.5	1.587
357	1.583
357.5	1.577
358	1.571
358.5	1.568
359	1.563
359.5	1.561
360	1.559
360.5	1.558
361	1.556
361.5	1.555
362	1.555
362.5	1.556
363	1.557
363.5	1.558
364	1.555
364.5	1.554
365	1.553
365.5	1.552
366	1.553
366.5	1.554
367	1.554
367.5	1.548
368	1.543
368.5	1.536
369	1.536
369.5	1.535
370	1.535
370.5	1.534
371	1.54
371.5	1.542
372	1.542
372.5	1.538
373	1.539
373.5	1.536
374	1.538
374.5	1.537
375	1.535
375.5	1.533
376	1.535
376.5	1.533
377	1.532
377.5	1.531
378	1.531
378.5	1.531
379	1.532
379.5	1.531
380	1.53
380.5	1.53
381	1.53
381.5	1.53
382	1.529
382.5	1.531
383	1.53
383.5	1.534
384	1.534
384.5	1.531
385	1.528
385.5	1.527
386	1.525
386.5	1.524
387	1.519
387.5	1.518
388	1.516
388.5	1.521
389	1.522
389.5	1.524
390	1.526
390.5	1.529
391	1.528
391.5	1.525
392	1.521
392.5	1.519
393	1.516
393.5	1.516
394	1.516
394.5	1.521
395	1.52
395.5	1.518
396	1.514
396.5	1.512
397	1.512
397.5	1.51
398	1.506
398.5	1.506
399	1.505
399.5	1.508
400	1.507
400.5	1.504
401	1.504
401.5	1.505
402	1.504
402.5	1.499
403	1.495
403.5	1.49
404	1.487
404.5	1.489
405	1.491
405.5	1.493
406	1.499
406.5	1.502
407	1.502
407.5	1.499
408	1.499
408.5	1.497
409	1.492
409.5	1.492
410	1.492
410.5	1.495
411	1.5
411.5	1.503
412	1.504
412.5	1.507
413	1.508
413.5	1.506
414	1.502
414.5	1.501
415	1.503
415.5	1.508
416	1.511
416.5	1.515
417	1.514
417.5	1.514
418	1.513
418.5	1.51
419	1.507
419.5	1.508
420	1.507
420.5	1.506
421	1.505
421.5	1.507
422	1.505
422.5	1.505
423	1.507
423.5	1.506
424	1.509
424.5	1.512
425	1.511
425.5	1.512
426	1.515
426.5	1.517
427	1.516
427.5	1.515
428	1.514
428.5	1.513
429	1.514
429.5	1.514
430	1.515
430.5	1.515
431	1.52
431.5	1.523
432	1.524
432.5	1.526
433	1.529
433.5	1.531
434	1.532
434.5	1.531
435	1.532
435.5	1.529
436	1.531
436.5	1.531
437	1.531
437.5	1.535
438	1.538
438.5	1.541
439	1.544
439.5	1.544
440	1.545
440.5	1.544
441	1.547
441.5	1.547
442	1.549
442.5	1.552
443	1.556
443.5	1.558
444	1.558
444.5	1.558
445	1.556
445.5	1.556
446	1.552
446.5	1.548
447	1.544
447.5	1.537
448	1.533
448.5	1.53
449	1.531
449.5	1.535
450	1.536
450.5	1.538
451	1.536
451.5	1.536
452	1.535
452.5	1.53
453	1.527
453.5	1.527
454	1.528
454.5	1.529
455	1.526
455.5	1.523
456	1.522
456.5	1.522
457	1.519
457.5	1.514
458	1.508
458.5	1.503
459	1.5
459.5	1.499
460	1.495
460.5	1.495
461	1.496
461.5	1.494
462	1.494
462.5	1.493
463	1.494
463.5	1.493
464	1.491
464.5	1.49
465	1.491
465.5	1.491
466	1.489
466.5	1.486
467	1.485
467.5	1.484
468	1.483
468.5	1.477
469	1.474
469.5	1.474
470	1.476
470.5	1.479
471	1.482
471.5	1.483
472	1.482
472.5	1.48
473	1.475
473.5	1.471
474	1.468
474.5	1.469
475	1.469
475.5	1.469
476	1.467
476.5	1.464
477	1.459
477.5	1.455
478	1.453
478.5	1.453
479	1.451
479.5	1.452
480	1.452
480.5	1.45
481	1.451
481.5	1.45
482	1.446
482.5	1.443
483	1.445
483.5	1.445
484	1.444
484.5	1.444
485	1.442
485.5	1.44
486	1.441
486.5	1.442
487	1.441
487.5	1.443
488	1.449
488.5	1.449
489	1.449
489.5	1.448
490	1.446
490.5	1.441
491	1.436
491.5	1.435
492	1.434
492.5	1.434
493	1.438
493.5	1.436
494	1.438
494.5	1.437
495	1.438
495.5	1.437
496	1.436
496.5	1.433
497	1.43
497.5	1.43
498	1.431
498.5	1.433
499	1.435
499.5	1.434
500	1.433
500.5	1.433
501	1.433
501.5	1.428
502	1.425
502.5	1.423
503	1.422
503.5	1.42
504	1.42
504.5	1.417
505	1.414
505.5	1.41
506	1.413
506.5	1.411
507	1.408
507.5	1.403
508	1.398
508.5	1.391
509	1.394
509.5	1.391
510	1.391
510.5	1.392
511	1.397
511.5	1.4
512	1.404
512.5	1.4
513	1.398
513.5	1.391
514	1.387
514.5	1.381
515	1.379
515.5	1.381
516	1.377
516.5	1.376
517	1.379
517.5	1.38
518	1.377
518.5	1.375
519	1.374
519.5	1.371
520	1.375
520.5	1.38
521	1.381
521.5	1.381
522	1.38
522.5	1.379
523	1.373
523.5	1.368
524	1.365
524.5	1.361
525	1.362
525.5	1.363
526	1.362
526.5	1.362
527	1.361
527.5	1.358
528	1.351
528.5	1.347
529	1.347
529.5	1.351
530	1.352
530.5	1.354
531	1.358
531.5	1.361
532	1.36
532.5	1.354
533	1.349
533.5	1.342
534	1.337
534.5	1.336
535	1.334
535.5	1.333
536	1.333
536.5	1.336
537	1.338
537.5	1.339
538	1.34
538.5	1.337
539	1.334
539.5	1.329
540	1.323
540.5	1.318
541	1.318
541.5	1.318
542	1.317
542.5	1.319
543	1.319
543.5	1.316
544	1.315
544.5	1.31
545	1.311
545.5	1.312
546	1.314
546.5	1.309
547	1.306
547.5	1.304
548	1.304
548.5	1.298
549	1.294
549.5	1.294
550	1.294
550.5	1.296
551	1.298
551.5	1.295
552	1.293
552.5	1.293
553	1.287
553.5	1.281
554	1.275
554.5	1.275
555	1.274
555.5	1.27
556	1.27
556.5	1.268
557	1.266
557.5	1.265
558	1.265
558.5	1.271
559	1.277
559.5	1.277
560	1.279
560.5	1.275
561	1.272
561.5	1.265
562	1.26
562.5	1.258
563	1.259
563.5	1.26
564	1.263
564.5	1.26
565	1.261
565.5	1.259
566	1.259
566.5	1.254
567	1.253
567.5	1.25
568	1.249
568.5	1.253
569	1.254
569.5	1.253
570	1.252
570.5	1.25
571	1.251
571.5	1.252
572	1.254
572.5	1.254
573	1.259
573.5	1.264
574	1.261
574.5	1.256
575	1.251
575.5	1.248
576	1.246
576.5	1.246
577	1.249
577.5	1.247
578	1.249
578.5	1.248
579	1.243
579.5	1.242
580	1.241
580.5	1.241
581	1.24
581.5	1.238
582	1.24
582.5	1.239
583	1.24
583.5	1.241
584	1.241
584.5	1.242
585	1.243
585.5	1.237
586	1.234
586.5	1.225
587	1.222
587.5	1.218
588	1.218
588.5	1.221
589	1.226
589.5	1.227
590	1.23
590.5	1.232
591	1.235
591.5	1.234
592	1.234
592.5	1.23
593	1.226
593.5	1.224
594	1.226
594.5	1.226
595	1.231
595.5	1.237
596	1.238
596.5	1.242
597	1.243
597.5	1.239
598	1.236
598.5	1.232
599	1.234
599.5	1.233
600	1.236
600.5	1.236
601	1.233
601.5	1.237
602	1.24
602.5	1.233
603	1.228
603.5	1.219
604	1.219
604.5	1.22
605	1.222
605.5	1.225
606	1.229
606.5	1.235
607	1.238
607.5	1.235
608	1.232
608.5	1.229
609	1.23
609.5	1.23
610	1.235
610.5	1.24
611	1.244
611.5	1.246
612	1.245
612.5	1.245
613	1.242
613.5	1.238
614	1.232
614.5	1.228
615	1.231
615.5	1.237
616	1.239
616.5	1.24
617	1.247
617.5	1.253
618	1.256
618.5	1.257
619	1.257
619.5	1.254
620	1.252
620.5	1.247
621	1.244
621.5	1.242
622	1.24
622.5	1.241
623	1.241
623.5	1.241
624	1.239
624.5	1.239
625	1.242
625.5	1.244
626	1.247
626.5	1.253
627	1.25
627.5	1.253
628	1.252
628.5	1.246
629	1.245
629.5	1.246
630	1.252
630.5	1.263
631	1.263
631.5	1.267
632	1.27
632.5	1.272
633	1.267
633.5	1.261
634	1.255
634.5	1.249
635	1.243
635.5	1.242
636	1.238
636.5	1.239
637	1.238
637.5	1.24
638	1.24
638.5	1.243
639	1.244
639.5	1.247
640	1.253
640.5	1.25
641	1.248
641.5	1.245
642	1.239
642.5	1.238
643	1.238
643.5	1.235
644	1.237
644.5	1.244
645	1.245
645.5	1.238
646	1.236
646.5	1.23
647	1.231
647.5	1.23
648	1.232
648.5	1.231
649	1.235
649.5	1.232
650	1.229
650.5	1.223
651	1.217
651.5	1.207
652	1.205
652.5	1.203
653	1.202
653.5	1.206
654	1.209
654.5	1.211
655	1.215
655.5	1.216
656	1.219
656.5	1.214
657	1.218
657.5	1.224
658	1.225
658.5	1.221
659	1.218
659.5	1.212
660	1.207
660.5	1.2
661	1.207
661.5	1.205
662	1.207
662.5	1.21
663	1.212
663.5	1.207
664	1.205
664.5	1.202
665	1.209
665.5	1.21
666	1.221
666.5	1.226
667	1.227
667.5	1.225
668	1.223
668.5	1.219
669	1.223
669.5	1.227
670	1.237
670.5	1.235
671	1.233
671.5	1.234
672	1.231
672.5	1.234
673	1.234
673.5	1.23
674	1.23
674.5	1.231
675	1.233
675.5	1.231
676	1.228
676.5	1.234
677	1.236
677.5	1.247
678	1.251
678.5	1.251
679	1.254
679.5	1.255
680	1.262
680.5	1.267
681	1.268
681.5	1.275
682	1.279
682.5	1.28
683	1.277
683.5	1.276
684	1.275
684.5	1.27
685	1.274
685.5	1.274
686	1.273
686.5	1.277
687	1.278
687.5	1.281
688	1.283
688.5	1.282
689	1.284
689.5	1.285
690	1.283
690.5	1.281
691	1.267
691.5	1.251
692	1.241
692.5	1.231
693	1.227
693.5	1.23
694	1.238
694.5	1.243
695	1.247
695.5	1.247
696	1.234
696.5	1.221
697	1.211
697.5	1.201
698	1.191
698.5	1.195
699	1.195
699.5	1.192
700	1.184
700.5	1.181
701	1.181
701.5	1.186
702	1.188
702.5	1.191
703	1.19
703.5	1.19
704	1.191
704.5	1.186
705	1.175
705.5	1.168
706	1.163
706.5	1.163
707	1.156
707.5	1.149
708	1.135
708.5	1.125
709	1.126
709.5	1.135
710	1.141
710.5	1.149
711	1.154
711.5	1.164
712	1.161
712.5	1.15
713	1.143
713.5	1.136
714	1.134
714.5	1.136
715	1.132
715.5	1.128
716	1.125
716.5	1.124
717	1.112
717.5	1.102
718	1.096
718.5	1.095
719	1.095
719.5	1.102
720	1.111
720.5	1.118
721	1.127
721.5	1.131
722	1.127
722.5	1.113
723	1.103
723.5	1.094
724	1.085
724.5	1.082
725	1.083
725.5	1.079
726	1.079
726.5	1.081
727	1.083
727.5	1.081
728	1.085
728.5	1.081
729	1.084
729.5	1.092
730	1.1
730.5	1.099
731	1.097
731.5	1.099
732	1.098
732.5	1.092
733	1.078
733.5	1.067
734	1.067
734.5	1.07
735	1.071
735.5	1.071
736	1.075
736.5	1.082
737	1.078
737.5	1.066
738	1.057
738.5	1.059
739	1.064
739.5	1.065
740	1.067
740.5	1.073
741	1.075
741.5	1.075
742	1.069
742.5	1.063
743	1.061
743.5	1.056
744	1.05
744.5	1.046
745	1.046
745.5	1.06
746	1.064
746.5	1.07
747	1.07
747.5	1.074
748	1.071
748.5	1.058
749	1.044
749.5	1.038
750	1.034
750.5	1.037
751	1.031
751.5	1.03
752	1.03
752.5	1.033
753	1.032
753.5	1.03
754	1.027
754.5	1.027
755	1.027
755.5	1.024
756	1.027
756.5	1.029
757	1.028
757.5	1.033
758	1.036
758.5	1.041
759	1.045
759.5	1.047
760	1.049
760.5	1.051
761	1.048
761.5	1.043
762	1.041
762.5	1.04
763	1.035
763.5	1.036
764	1.033
764.5	1.03
765	1.032
765.5	1.036
766	1.037
766.5	1.037
767	1.035
767.5	1.02
768	1.012
768.5	1.008
769	0.998
769.5	0.992
770	0.99
770.5	0.994
771	1
771.5	1.002
772	1.001
772.5	1.002
773	1.011
773.5	1.024
774	1.027
774.5	1.025
775	1.022
775.5	1.031
776	1.034
776.5	1.03
777	1.02
777.5	1.015
778	1.009
778.5	1.003
779	0.991
779.5	0.984
780	0.983
780.5	0.994
781	1.005
781.5	1.005
782	1.007
782.5	1.007
783	1.008
783.5	1
784	0.991
784.5	0.997
785	0.996
785.5	1.006
786	1.008
786.5	1.01
787	1.008
787.5	1.005
788	1
788.5	0.985
789	0.973
789.5	0.971
790	0.963
790.5	0.96
791	0.953
791.5	0.962
792	0.968
792.5	0.978
793	0.98
793.5	0.976
794	0.974
794.5	0.971
795	0.971
795.5	0.963
796	0.956
796.5	0.957
797	0.962
797.5	0.972
798	0.971
798.5	0.967
799	0.964
799.5	0.964
800	0.966
800.5	0.963
801	0.96
801.5	0.969
802	0.977
802.5	0.986
803	0.991
803.5	0.989
804	0.983
804.5	0.977
805	0.971
805.5	0.965
806	0.961
806.5	0.957
807	0.947
807.5	0.943
808	0.938
808.5	0.935
809	0.933
809.5	0.933
810	0.946
810.5	0.958
811	0.964
811.5	0.969
812	0.968
812.5	0.961
813	0.962
813.5	0.961
814	0.947
814.5	0.94
815	0.948
815.5	0.954
816	0.957
816.5	0.967
817	0.968
817.5	0.967
818	0.973
818.5	0.959
819	0.941
819.5	0.929
820	0.922
820.5	0.911
821	0.902
821.5	0.908
822	0.917
822.5	0.936
823	0.957
823.5	0.98
824	0.996
824.5	1.001
825	0.998
825.5	0.987
826	0.968
826.5	0.959
827	0.942
827.5	0.939
828	0.94
828.5	0.944
829	0.943
829.5	0.943
830	0.94
830.5	0.94
831	0.94
831.5	0.941
832	0.934
832.5	0.943
833	0.941
833.5	0.935
834	0.929
834.5	0.918
835	0.904
835.5	0.895
836	0.897
836.5	0.904
837	0.913
837.5	0.93
838	0.946
838.5	0.959
839	0.967
839.5	0.97
840	0.954
840.5	0.938
841	0.929
841.5	0.928
842	0.913
842.5	0.899
843	0.89
843.5	0.886
844	0.884
844.5	0.871
845	0.856
845.5	0.861
846	0.877
846.5	0.898
847	0.897
847.5	0.897
848	0.899
848.5	0.907
849	0.903
849.5	0.889
850	0.889
	
	
WT 0.01M sucrose	
4/4/2023 5:44 PM	
Wavelength (nm)	10mm Absorbance
//WLCalib: Shift 	0.20333
//WLCalib: 261S 	-0.45
//WLCalib: 362S 	-0.7
//WLCalib: 484S 	-0.73
//WLCalib: 529S 	-0.44
//WLCalib: 823S 	-0.81
//QSpecEnd: 	
190	9.702
190.5	9.845
191	9.985
191.5	10.085
192	10.22
192.5	10.296
193	10.415
193.5	10.585
194	10.651
194.5	10.774
195	10.92
195.5	11.129
196	11.331
196.5	11.391
197	11.462
197.5	11.532
198	11.636
198.5	11.598
199	11.551
199.5	11.599
200	11.609
200.5	11.657
201	11.656
201.5	11.669
202	11.747
202.5	11.886
203	11.995
203.5	12.171
204	12.349
204.5	12.465
205	12.524
205.5	12.543
206	12.536
206.5	12.496
207	12.472
207.5	12.478
208	12.311
208.5	12.286
209	12.194
209.5	12.048
210	11.942
210.5	11.748
211	11.551
211.5	11.342
212	11.164
212.5	10.906
213	10.586
213.5	10.338
214	10.017
214.5	9.68
215	9.383
215.5	9.028
216	8.699
216.5	8.367
217	8.028
217.5	7.697
218	7.392
218.5	7.097
219	6.806
219.5	6.523
220	6.259
220.5	5.994
221	5.76
221.5	5.492
222	5.228
222.5	4.98
223	4.745
223.5	4.523
224	4.302
224.5	4.084
225	3.873
225.5	3.673
226	3.465
226.5	3.26
227	3.063
227.5	2.889
228	2.739
228.5	2.608
229	2.499
229.5	2.403
230	2.322
230.5	2.239
231	2.158
231.5	2.065
232	1.974
232.5	1.888
233	1.801
233.5	1.717
234	1.645
234.5	1.58
235	1.525
235.5	1.474
236	1.428
236.5	1.389
237	1.356
237.5	1.327
238	1.299
238.5	1.269
239	1.248
239.5	1.226
240	1.204
240.5	1.178
241	1.157
241.5	1.14
242	1.122
242.5	1.112
243	1.101
243.5	1.092
244	1.088
244.5	1.082
245	1.074
245.5	1.065
246	1.06
246.5	1.054
247	1.049
247.5	1.049
248	1.045
248.5	1.043
249	1.041
249.5	1.043
250	1.04
250.5	1.037
251	1.036
251.5	1.035
252	1.034
252.5	1.03
253	1.03
253.5	1.028
254	1.031
254.5	1.033
255	1.031
255.5	1.031
256	1.03
256.5	1.028
257	1.022
257.5	1.018
258	1.021
258.5	1.023
259	1.024
259.5	1.022
260	1.023
260.5	1.023
261	1.023
261.5	1.023
262	1.021
262.5	1.023
263	1.024
263.5	1.024
264	1.021
264.5	1.023
265	1.02
265.5	1.019
266	1.014
266.5	1.011
267	1.009
267.5	1.011
268	1.01
268.5	1.014
269	1.017
269.5	1.023
270	1.019
270.5	1.016
271	1.01
271.5	1.002
272	0.999
272.5	0.999
273	0.999
273.5	1.005
274	1.004
274.5	1.004
275	1.001
275.5	0.998
276	0.994
276.5	0.989
277	0.99
277.5	0.992
278	0.992
278.5	0.995
279	0.997
279.5	0.996
280	0.995
280.5	0.997
281	0.992
281.5	0.99
282	0.984
282.5	0.985
283	0.979
283.5	0.981
284	0.983
284.5	0.979
285	0.982
285.5	0.981
286	0.977
286.5	0.976
287	0.966
287.5	0.962
288	0.959
288.5	0.959
289	0.959
289.5	0.959
290	0.962
290.5	0.963
291	0.965
291.5	0.964
292	0.956
292.5	0.954
293	0.951
293.5	0.946
294	0.941
294.5	0.939
295	0.938
295.5	0.937
296	0.937
296.5	0.94
297	0.939
297.5	0.944
298	0.941
298.5	0.937
299	0.932
299.5	0.929
300	0.926
300.5	0.922
301	0.92
301.5	0.921
302	0.923
302.5	0.927
303	0.928
303.5	0.928
304	0.926
304.5	0.927
305	0.926
305.5	0.92
306	0.915
306.5	0.911
307	0.909
307.5	0.907
308	0.905
308.5	0.905
309	0.906
309.5	0.907
310	0.907
310.5	0.903
311	0.902
311.5	0.902
312	0.901
312.5	0.897
313	0.894
313.5	0.895
314	0.893
314.5	0.893
315	0.893
315.5	0.891
316	0.892
316.5	0.894
317	0.893
317.5	0.889
318	0.887
318.5	0.886
319	0.886
319.5	0.888
320	0.887
320.5	0.882
321	0.881
321.5	0.879
322	0.876
322.5	0.868
323	0.865
323.5	0.864
324	0.868
324.5	0.871
325	0.874
325.5	0.873
326	0.875
326.5	0.874
327	0.871
327.5	0.865
328	0.866
328.5	0.866
329	0.865
329.5	0.865
330	0.865
330.5	0.864
331	0.865
331.5	0.865
332	0.866
332.5	0.861
333	0.86
333.5	0.853
334	0.846
334.5	0.84
335	0.841
335.5	0.843
336	0.848
336.5	0.849
337	0.853
337.5	0.855
338	0.858
338.5	0.857
339	0.861
339.5	0.861
340	0.864
340.5	0.861
341	0.856
341.5	0.849
342	0.844
342.5	0.845
343	0.842
343.5	0.84
344	0.845
344.5	0.847
345	0.847
345.5	0.848
346	0.846
346.5	0.844
347	0.841
347.5	0.838
348	0.835
348.5	0.831
349	0.833
349.5	0.831
350	0.827
350.5	0.826
351	0.824
351.5	0.823
352	0.819
352.5	0.821
353	0.828
353.5	0.831
354	0.833
354.5	0.834
355	0.833
355.5	0.832
356	0.83
356.5	0.825
357	0.821
357.5	0.819
358	0.818
358.5	0.819
359	0.816
359.5	0.815
360	0.815
360.5	0.816
361	0.815
361.5	0.814
362	0.815
362.5	0.813
363	0.811
363.5	0.814
364	0.813
364.5	0.814
365	0.815
365.5	0.82
366	0.82
366.5	0.821
367	0.819
367.5	0.812
368	0.806
368.5	0.805
369	0.809
369.5	0.806
370	0.809
370.5	0.81
371	0.812
371.5	0.811
372	0.812
372.5	0.805
373	0.801
373.5	0.799
374	0.799
374.5	0.793
375	0.797
375.5	0.795
376	0.801
376.5	0.806
377	0.811
377.5	0.811
378	0.812
378.5	0.811
379	0.809
379.5	0.806
380	0.807
380.5	0.805
381	0.803
381.5	0.802
382	0.799
382.5	0.799
383	0.8
383.5	0.797
384	0.796
384.5	0.795
385	0.793
385.5	0.793
386	0.79
386.5	0.791
387	0.79
387.5	0.792
388	0.794
388.5	0.799
389	0.799
389.5	0.799
390	0.799
390.5	0.798
391	0.794
391.5	0.791
392	0.788
392.5	0.788
393	0.79
393.5	0.796
394	0.798
394.5	0.801
395	0.801
395.5	0.8
396	0.795
396.5	0.792
397	0.791
397.5	0.791
398	0.791
398.5	0.794
399	0.795
399.5	0.795
400	0.795
400.5	0.791
401	0.788
401.5	0.787
402	0.784
402.5	0.779
403	0.779
403.5	0.78
404	0.783
404.5	0.783
405	0.782
405.5	0.779
406	0.779
406.5	0.78
407	0.779
407.5	0.776
408	0.779
408.5	0.78
409	0.78
409.5	0.781
410	0.781
410.5	0.781
411	0.787
411.5	0.792
412	0.793
412.5	0.795
413	0.793
413.5	0.79
414	0.786
414.5	0.783
415	0.785
415.5	0.786
416	0.793
416.5	0.795
417	0.793
417.5	0.793
418	0.79
418.5	0.788
419	0.788
419.5	0.788
420	0.789
420.5	0.787
421	0.789
421.5	0.789
422	0.787
422.5	0.787
423	0.787
423.5	0.791
424	0.795
424.5	0.797
425	0.797
425.5	0.796
426	0.797
426.5	0.799
427	0.796
427.5	0.795
428	0.792
428.5	0.793
429	0.795
429.5	0.795
430	0.795
430.5	0.795
431	0.797
431.5	0.801
432	0.803
432.5	0.805
433	0.807
433.5	0.811
434	0.813
434.5	0.81
435	0.809
435.5	0.804
436	0.8
436.5	0.797
437	0.797
437.5	0.801
438	0.805
438.5	0.808
439	0.812
439.5	0.812
440	0.812
440.5	0.81
441	0.809
441.5	0.809
442	0.814
442.5	0.819
443	0.821
443.5	0.822
444	0.825
444.5	0.826
445	0.825
445.5	0.824
446	0.822
446.5	0.818
447	0.815
447.5	0.809
448	0.805
448.5	0.802
449	0.804
449.5	0.808
450	0.809
450.5	0.809
451	0.808
451.5	0.807
452	0.807
452.5	0.802
453	0.799
453.5	0.8
454	0.801
454.5	0.8
455	0.797
455.5	0.795
456	0.794
456.5	0.794
457	0.793
457.5	0.789
458	0.788
458.5	0.788
459	0.789
459.5	0.791
460	0.792
460.5	0.795
461	0.795
461.5	0.792
462	0.789
462.5	0.787
463	0.786
463.5	0.784
464	0.781
464.5	0.783
465	0.785
465.5	0.787
466	0.786
466.5	0.786
467	0.784
467.5	0.787
468	0.788
468.5	0.784
469	0.78
469.5	0.781
470	0.779
470.5	0.777
471	0.777
471.5	0.776
472	0.774
472.5	0.772
473	0.77
473.5	0.769
474	0.769
474.5	0.771
475	0.771
475.5	0.77
476	0.769
476.5	0.766
477	0.765
477.5	0.761
478	0.76
478.5	0.76
479	0.758
479.5	0.759
480	0.76
480.5	0.758
481	0.76
481.5	0.761
482	0.762
482.5	0.761
483	0.763
483.5	0.762
484	0.759
484.5	0.76
485	0.757
485.5	0.755
486	0.756
486.5	0.758
487	0.76
487.5	0.76
488	0.764
488.5	0.764
489	0.763
489.5	0.763
490	0.762
490.5	0.758
491	0.755
491.5	0.752
492	0.749
492.5	0.747
493	0.748
493.5	0.748
494	0.749
494.5	0.75
495	0.752
495.5	0.753
496	0.754
496.5	0.752
497	0.748
497.5	0.747
498	0.749
498.5	0.752
499	0.754
499.5	0.754
500	0.752
500.5	0.751
501	0.75
501.5	0.748
502	0.743
502.5	0.741
503	0.743
503.5	0.743
504	0.743
504.5	0.74
505	0.737
505.5	0.735
506	0.736
506.5	0.737
507	0.735
507.5	0.734
508	0.73
508.5	0.725
509	0.722
509.5	0.719
510	0.719
510.5	0.723
511	0.73
511.5	0.734
512	0.735
512.5	0.736
513	0.735
513.5	0.731
514	0.725
514.5	0.72
515	0.723
515.5	0.724
516	0.724
516.5	0.721
517	0.721
517.5	0.723
518	0.723
518.5	0.721
519	0.719
519.5	0.715
520	0.717
520.5	0.719
521	0.719
521.5	0.72
522	0.721
522.5	0.724
523	0.724
523.5	0.723
524	0.722
524.5	0.717
525	0.715
525.5	0.713
526	0.712
526.5	0.711
527	0.71
527.5	0.708
528	0.706
528.5	0.703
529	0.701
529.5	0.701
530	0.702
530.5	0.702
531	0.706
531.5	0.711
532	0.709
532.5	0.708
533	0.705
533.5	0.699
534	0.696
534.5	0.694
535	0.696
535.5	0.697
536	0.699
536.5	0.701
537	0.701
537.5	0.701
538	0.7
538.5	0.696
539	0.696
539.5	0.693
540	0.691
540.5	0.692
541	0.694
541.5	0.693
542	0.693
542.5	0.692
543	0.69
543.5	0.687
544	0.684
544.5	0.68
545	0.68
545.5	0.683
546	0.688
546.5	0.685
547	0.686
547.5	0.684
548	0.685
548.5	0.68
549	0.673
549.5	0.674
550	0.673
550.5	0.674
551	0.68
551.5	0.675
552	0.672
552.5	0.671
553	0.668
553.5	0.663
554	0.659
554.5	0.66
555	0.662
555.5	0.66
556	0.661
556.5	0.66
557	0.658
557.5	0.657
558	0.658
558.5	0.662
559	0.67
559.5	0.671
560	0.677
560.5	0.672
561	0.671
561.5	0.668
562	0.662
562.5	0.655
563	0.654
563.5	0.651
564	0.655
564.5	0.653
565	0.656
565.5	0.654
566	0.654
566.5	0.652
567	0.651
567.5	0.647
568	0.648
568.5	0.649
569	0.651
569.5	0.652
570	0.652
570.5	0.65
571	0.646
571.5	0.647
572	0.65
572.5	0.647
573	0.651
573.5	0.658
574	0.658
574.5	0.658
575	0.658
575.5	0.655
576	0.652
576.5	0.654
577	0.655
577.5	0.653
578	0.651
578.5	0.655
579	0.648
579.5	0.648
580	0.65
580.5	0.65
581	0.65
581.5	0.652
582	0.651
582.5	0.651
583	0.651
583.5	0.652
584	0.652
584.5	0.655
585	0.657
585.5	0.653
586	0.649
586.5	0.642
587	0.637
587.5	0.635
588	0.635
588.5	0.635
589	0.637
589.5	0.635
590	0.634
590.5	0.634
591	0.638
591.5	0.639
592	0.643
592.5	0.644
593	0.645
593.5	0.646
594	0.644
594.5	0.64
595	0.644
595.5	0.648
596	0.649
596.5	0.651
597	0.651
597.5	0.649
598	0.65
598.5	0.65
599	0.647
599.5	0.646
600	0.647
600.5	0.644
601	0.642
601.5	0.643
602	0.644
602.5	0.644
603	0.64
603.5	0.636
604	0.637
604.5	0.636
605	0.633
605.5	0.633
606	0.638
606.5	0.641
607	0.647
607.5	0.646
608	0.642
608.5	0.644
609	0.647
609.5	0.647
610	0.648
610.5	0.652
611	0.654
611.5	0.654
612	0.655
612.5	0.654
613	0.653
613.5	0.652
614	0.649
614.5	0.651
615	0.652
615.5	0.658
616	0.657
616.5	0.66
617	0.664
617.5	0.665
618	0.665
618.5	0.668
619	0.667
619.5	0.667
620	0.665
620.5	0.662
621	0.658
621.5	0.659
622	0.658
622.5	0.658
623	0.655
623.5	0.658
624	0.657
624.5	0.653
625	0.654
625.5	0.652
626	0.653
626.5	0.66
627	0.662
627.5	0.667
628	0.669
628.5	0.668
629	0.669
629.5	0.665
630	0.664
630.5	0.663
631	0.66
631.5	0.663
632	0.666
632.5	0.666
633	0.664
633.5	0.662
634	0.661
634.5	0.658
635	0.652
635.5	0.652
636	0.65
636.5	0.649
637	0.649
637.5	0.65
638	0.65
638.5	0.652
639	0.654
639.5	0.657
640	0.659
640.5	0.658
641	0.657
641.5	0.653
642	0.649
642.5	0.648
643	0.643
643.5	0.642
644	0.645
644.5	0.654
645	0.659
645.5	0.657
646	0.657
646.5	0.655
647	0.655
647.5	0.651
648	0.65
648.5	0.651
649	0.651
649.5	0.648
650	0.64
650.5	0.637
651	0.63
651.5	0.627
652	0.629
652.5	0.626
653	0.63
653.5	0.638
654	0.635
654.5	0.634
655	0.634
655.5	0.638
656	0.636
656.5	0.634
657	0.64
657.5	0.643
658	0.647
658.5	0.649
659	0.648
659.5	0.646
660	0.646
660.5	0.649
661	0.654
661.5	0.651
662	0.652
662.5	0.652
663	0.65
663.5	0.644
664	0.635
664.5	0.63
665	0.63
665.5	0.633
666	0.642
666.5	0.644
667	0.641
667.5	0.639
668	0.639
668.5	0.643
669	0.647
669.5	0.655
670	0.662
670.5	0.667
671	0.669
671.5	0.665
672	0.655
672.5	0.649
673	0.646
673.5	0.648
674	0.65
674.5	0.648
675	0.651
675.5	0.647
676	0.641
676.5	0.641
677	0.642
677.5	0.644
678	0.643
678.5	0.645
679	0.651
679.5	0.657
680	0.666
680.5	0.671
681	0.676
681.5	0.686
682	0.69
682.5	0.689
683	0.68
683.5	0.674
684	0.667
684.5	0.66
685	0.655
685.5	0.656
686	0.658
686.5	0.665
687	0.669
687.5	0.673
688	0.677
688.5	0.681
689	0.679
689.5	0.678
690	0.678
690.5	0.68
691	0.681
691.5	0.669
692	0.659
692.5	0.649
693	0.646
693.5	0.644
694	0.641
694.5	0.643
695	0.647
695.5	0.653
696	0.651
696.5	0.644
697	0.637
697.5	0.634
698	0.632
698.5	0.632
699	0.635
699.5	0.637
700	0.632
700.5	0.627
701	0.624
701.5	0.624
702	0.62
702.5	0.618
703	0.614
703.5	0.612
704	0.62
704.5	0.625
705	0.615
705.5	0.607
706	0.601
706.5	0.601
707	0.593
707.5	0.588
708	0.572
708.5	0.569
709	0.571
709.5	0.584
710	0.587
710.5	0.592
711	0.59
711.5	0.607
712	0.609
712.5	0.606
713	0.598
713.5	0.594
714	0.589
714.5	0.596
715	0.592
715.5	0.589
716	0.581
716.5	0.586
717	0.579
717.5	0.57
718	0.569
718.5	0.574
719	0.575
719.5	0.586
720	0.594
720.5	0.601
721	0.599
721.5	0.6
722	0.596
722.5	0.582
723	0.578
723.5	0.574
724	0.568
724.5	0.566
725	0.564
725.5	0.559
726	0.553
726.5	0.552
727	0.554
727.5	0.551
728	0.557
728.5	0.56
729	0.568
729.5	0.575
730	0.581
730.5	0.582
731	0.582
731.5	0.584
732	0.585
732.5	0.581
733	0.57
733.5	0.559
734	0.551
734.5	0.552
735	0.552
735.5	0.55
736	0.552
736.5	0.558
737	0.558
737.5	0.551
738	0.55
738.5	0.557
739	0.565
739.5	0.577
740	0.58
740.5	0.583
741	0.579
741.5	0.575
742	0.557
742.5	0.548
743	0.548
743.5	0.545
744	0.541
744.5	0.538
745	0.541
745.5	0.553
746	0.557
746.5	0.564
747	0.562
747.5	0.568
748	0.571
748.5	0.562
749	0.552
749.5	0.551
750	0.549
750.5	0.544
751	0.538
751.5	0.534
752	0.531
752.5	0.527
753	0.521
753.5	0.517
754	0.516
754.5	0.522
755	0.526
755.5	0.528
756	0.534
756.5	0.543
757	0.541
757.5	0.539
758	0.537
758.5	0.54
759	0.543
759.5	0.549
760	0.557
760.5	0.565
761	0.558
761.5	0.556
762	0.551
762.5	0.55
763	0.546
763.5	0.543
764	0.54
764.5	0.538
765	0.54
765.5	0.547
766	0.547
766.5	0.549
767	0.55
767.5	0.543
768	0.531
768.5	0.525
769	0.516
769.5	0.508
770	0.509
770.5	0.517
771	0.522
771.5	0.521
772	0.525
772.5	0.529
773	0.539
773.5	0.553
774	0.558
774.5	0.551
775	0.555
775.5	0.56
776	0.556
776.5	0.545
777	0.541
777.5	0.544
778	0.546
778.5	0.543
779	0.541
779.5	0.535
780	0.538
780.5	0.542
781	0.539
781.5	0.536
782	0.529
782.5	0.522
783	0.517
783.5	0.508
784	0.501
784.5	0.504
785	0.506
785.5	0.509
786	0.517
786.5	0.524
787	0.526
787.5	0.527
788	0.525
788.5	0.512
789	0.499
789.5	0.494
790	0.485
790.5	0.479
791	0.48
791.5	0.494
792	0.504
792.5	0.517
793	0.523
793.5	0.52
794	0.516
794.5	0.508
795	0.504
795.5	0.498
796	0.496
796.5	0.492
797	0.494
797.5	0.504
798	0.508
798.5	0.501
799	0.499
799.5	0.496
800	0.502
800.5	0.508
801	0.509
801.5	0.511
802	0.515
802.5	0.518
803	0.521
803.5	0.515
804	0.514
804.5	0.513
805	0.515
805.5	0.519
806	0.514
806.5	0.508
807	0.494
807.5	0.482
808	0.477
808.5	0.475
809	0.47
809.5	0.471
810	0.471
810.5	0.475
811	0.473
811.5	0.48
812	0.484
812.5	0.493
813	0.503
813.5	0.503
814	0.485
814.5	0.477
815	0.472
815.5	0.474
816	0.477
816.5	0.496
817	0.502
817.5	0.519
818	0.525
818.5	0.509
819	0.489
819.5	0.48
820	0.473
820.5	0.463
821	0.452
821.5	0.463
822	0.475
822.5	0.496
823	0.522
823.5	0.545
824	0.568
824.5	0.577
825	0.577
825.5	0.563
826	0.543
826.5	0.533
827	0.519
827.5	0.506
828	0.505
828.5	0.509
829	0.509
829.5	0.51
830	0.513
830.5	0.514
831	0.514
831.5	0.515
832	0.504
832.5	0.502
833	0.495
833.5	0.489
834	0.478
834.5	0.471
835	0.462
835.5	0.461
836	0.466
836.5	0.479
837	0.484
837.5	0.501
838	0.512
838.5	0.525
839	0.529
839.5	0.526
840	0.514
840.5	0.5
841	0.495
841.5	0.494
842	0.476
842.5	0.469
843	0.458
843.5	0.46
844	0.449
844.5	0.436
845	0.432
845.5	0.423
846	0.43
846.5	0.437
847	0.436
847.5	0.453
848	0.47
848.5	0.478
849	0.48
849.5	0.487
850	0.49
	
	
WT 0.01M trehalose	
4/4/2023 5:45 PM	
Wavelength (nm)	10mm Absorbance
//WLCalib: Shift 	0.20333
//WLCalib: 261S 	-0.45
//WLCalib: 362S 	-0.7
//WLCalib: 484S 	-0.73
//WLCalib: 529S 	-0.44
//WLCalib: 823S 	-0.81
//QSpecEnd: 	
190	7.875
190.5	7.978
191	8.072
191.5	8.216
192	8.359
192.5	8.464
193	8.6
193.5	8.657
194	8.706
194.5	8.764
195	8.814
195.5	8.828
196	8.92
196.5	9.021
197	9.152
197.5	9.177
198	9.286
198.5	9.319
199	9.296
199.5	9.262
200	9.225
200.5	9.184
201	9.21
201.5	9.257
202	9.334
202.5	9.376
203	9.467
203.5	9.532
204	9.572
204.5	9.581
205	9.59
205.5	9.588
206	9.547
206.5	9.501
207	9.443
207.5	9.357
208	9.251
208.5	9.133
209	8.988
209.5	8.841
210	8.696
210.5	8.534
211	8.365
211.5	8.184
212	8.022
212.5	7.836
213	7.641
213.5	7.441
214	7.239
214.5	7.028
215	6.797
215.5	6.585
216	6.362
216.5	6.146
217	5.935
217.5	5.733
218	5.516
218.5	5.316
219	5.125
219.5	4.929
220	4.727
220.5	4.537
221	4.357
221.5	4.178
222	4.016
222.5	3.852
223	3.691
223.5	3.549
224	3.411
224.5	3.271
225	3.135
225.5	3.003
226	2.868
226.5	2.735
227	2.616
227.5	2.499
228	2.397
228.5	2.315
229	2.246
229.5	2.183
230	2.13
230.5	2.075
231	2.018
231.5	1.958
232	1.895
232.5	1.835
233	1.777
233.5	1.725
234	1.677
234.5	1.632
235	1.595
235.5	1.561
236	1.525
236.5	1.492
237	1.467
237.5	1.448
238	1.427
238.5	1.405
239	1.388
239.5	1.373
240	1.364
240.5	1.348
241	1.333
241.5	1.324
242	1.317
242.5	1.31
243	1.3
243.5	1.289
244	1.284
244.5	1.277
245	1.273
245.5	1.268
246	1.266
246.5	1.265
247	1.264
247.5	1.265
248	1.265
248.5	1.263
249	1.262
249.5	1.261
250	1.259
250.5	1.259
251	1.259
251.5	1.259
252	1.261
252.5	1.258
253	1.255
253.5	1.249
254	1.247
254.5	1.244
255	1.243
255.5	1.246
256	1.247
256.5	1.252
257	1.254
257.5	1.251
258	1.249
258.5	1.247
259	1.249
259.5	1.247
260	1.246
260.5	1.248
261	1.249
261.5	1.25
262	1.246
262.5	1.244
263	1.242
263.5	1.242
264	1.243
264.5	1.243
265	1.243
265.5	1.246
266	1.245
266.5	1.245
267	1.243
267.5	1.247
268	1.252
268.5	1.254
269	1.254
269.5	1.257
270	1.255
270.5	1.252
271	1.25
271.5	1.243
272	1.238
272.5	1.238
273	1.237
273.5	1.239
274	1.239
274.5	1.243
275	1.242
275.5	1.238
276	1.237
276.5	1.23
277	1.227
277.5	1.227
278	1.226
278.5	1.229
279	1.227
279.5	1.226
280	1.226
280.5	1.226
281	1.229
281.5	1.228
282	1.225
282.5	1.224
283	1.222
283.5	1.216
284	1.211
284.5	1.206
285	1.208
285.5	1.21
286	1.212
286.5	1.208
287	1.202
287.5	1.199
288	1.2
288.5	1.199
289	1.199
289.5	1.198
290	1.201
290.5	1.201
291	1.2
291.5	1.197
292	1.188
292.5	1.185
293	1.184
293.5	1.179
294	1.173
294.5	1.171
295	1.168
295.5	1.165
296	1.165
296.5	1.169
297	1.17
297.5	1.175
298	1.175
298.5	1.17
299	1.166
299.5	1.163
300	1.157
300.5	1.15
301	1.145
301.5	1.143
302	1.142
302.5	1.14
303	1.141
303.5	1.139
304	1.142
304.5	1.147
305	1.148
305.5	1.144
306	1.137
306.5	1.132
307	1.13
307.5	1.13
308	1.129
308.5	1.129
309	1.133
309.5	1.132
310	1.132
310.5	1.129
311	1.123
311.5	1.12
312	1.118
312.5	1.116
313	1.114
313.5	1.118
314	1.119
314.5	1.118
315	1.12
315.5	1.118
316	1.115
316.5	1.111
317	1.106
317.5	1.103
318	1.102
318.5	1.1
319	1.103
319.5	1.102
320	1.104
320.5	1.101
321	1.099
321.5	1.097
322	1.096
322.5	1.092
323	1.09
323.5	1.088
324	1.088
324.5	1.088
325	1.093
325.5	1.09
326	1.092
326.5	1.093
327	1.093
327.5	1.091
328	1.091
328.5	1.091
329	1.089
329.5	1.09
330	1.092
330.5	1.091
331	1.094
331.5	1.093
332	1.094
332.5	1.09
333	1.09
333.5	1.084
334	1.077
334.5	1.07
335	1.067
335.5	1.069
336	1.075
336.5	1.074
337	1.079
337.5	1.081
338	1.084
338.5	1.083
339	1.085
339.5	1.081
340	1.08
340.5	1.08
341	1.077
341.5	1.068
342	1.067
342.5	1.068
343	1.067
343.5	1.067
344	1.07
344.5	1.072
345	1.07
345.5	1.069
346	1.066
346.5	1.062
347	1.06
347.5	1.058
348	1.055
348.5	1.053
349	1.054
349.5	1.051
350	1.048
350.5	1.047
351	1.047
351.5	1.043
352	1.04
352.5	1.041
353	1.044
353.5	1.045
354	1.048
354.5	1.049
355	1.051
355.5	1.051
356	1.05
356.5	1.045
357	1.045
357.5	1.045
358	1.042
358.5	1.043
359	1.042
359.5	1.042
360	1.041
360.5	1.04
361	1.037
361.5	1.034
362	1.032
362.5	1.033
363	1.034
363.5	1.034
364	1.032
364.5	1.035
365	1.034
365.5	1.035
366	1.035
366.5	1.032
367	1.031
367.5	1.029
368	1.026
368.5	1.023
369	1.022
369.5	1.023
370	1.024
370.5	1.026
371	1.029
371.5	1.027
372	1.028
372.5	1.023
373	1.02
373.5	1.018
374	1.017
374.5	1.014
375	1.012
375.5	1.011
376	1.013
376.5	1.015
377	1.022
377.5	1.026
378	1.03
378.5	1.033
379	1.034
379.5	1.031
380	1.026
380.5	1.023
381	1.02
381.5	1.018
382	1.015
382.5	1.013
383	1.008
383.5	1.007
384	1.009
384.5	1.007
385	1.008
385.5	1.012
386	1.014
386.5	1.018
387	1.018
387.5	1.02
388	1.02
388.5	1.025
389	1.028
389.5	1.026
390	1.028
390.5	1.029
391	1.023
391.5	1.018
392	1.014
392.5	1.01
393	1.01
393.5	1.012
394	1.013
394.5	1.013
395	1.016
395.5	1.016
396	1.011
396.5	1.005
397	1.005
397.5	1.002
398	1.002
398.5	1.002
399	1.004
399.5	1.007
400	1.01
400.5	1.008
401	1.006
401.5	1.004
402	1.003
402.5	0.997
403	0.994
403.5	0.992
404	0.994
404.5	0.997
405	0.998
405.5	0.997
406	0.999
406.5	1.002
407	1.002
407.5	1
408	0.999
408.5	0.999
409	0.998
409.5	0.998
410	0.997
410.5	0.998
411	1.004
411.5	1.008
412	1.009
412.5	1.01
413	1.01
413.5	1.008
414	1.007
414.5	1.005
415	1.005
415.5	1.009
416	1.014
416.5	1.018
417	1.016
417.5	1.017
418	1.018
418.5	1.018
419	1.019
419.5	1.018
420	1.017
420.5	1.016
421	1.017
421.5	1.018
422	1.018
422.5	1.018
423	1.018
423.5	1.019
424	1.019
424.5	1.02
425	1.018
425.5	1.014
426	1.015
426.5	1.015
427	1.013
427.5	1.011
428	1.011
428.5	1.013
429	1.015
429.5	1.015
430	1.017
430.5	1.016
431	1.018
431.5	1.021
432	1.023
432.5	1.026
433	1.031
433.5	1.035
434	1.036
434.5	1.032
435	1.03
435.5	1.026
436	1.023
436.5	1.021
437	1.022
437.5	1.027
438	1.032
438.5	1.037
439	1.041
439.5	1.041
440	1.04
440.5	1.041
441	1.042
441.5	1.042
442	1.043
442.5	1.046
443	1.046
443.5	1.045
444	1.046
444.5	1.047
445	1.046
445.5	1.049
446	1.05
446.5	1.049
447	1.048
447.5	1.042
448	1.037
448.5	1.034
449	1.034
449.5	1.036
450	1.035
450.5	1.035
451	1.033
451.5	1.031
452	1.031
452.5	1.025
453	1.023
453.5	1.025
454	1.027
454.5	1.028
455	1.027
455.5	1.026
456	1.023
456.5	1.022
457	1.018
457.5	1.013
458	1.009
458.5	1.008
459	1.01
459.5	1.012
460	1.01
460.5	1.011
461	1.011
461.5	1.008
462	1.006
462.5	1.002
463	1.002
463.5	1.004
464	1.004
464.5	1.007
465	1.003
465.5	1.003
466	1
466.5	0.996
467	0.996
467.5	0.996
468	0.998
468.5	0.997
469	0.994
469.5	0.995
470	0.992
470.5	0.993
471	0.993
471.5	0.991
472	0.991
472.5	0.991
473	0.987
473.5	0.985
474	0.984
474.5	0.985
475	0.982
475.5	0.982
476	0.98
476.5	0.979
477	0.978
477.5	0.976
478	0.972
478.5	0.973
479	0.975
479.5	0.976
480	0.974
480.5	0.974
481	0.973
481.5	0.976
482	0.974
482.5	0.973
483	0.972
483.5	0.974
484	0.975
484.5	0.976
485	0.976
485.5	0.976
486	0.976
486.5	0.978
487	0.977
487.5	0.978
488	0.981
488.5	0.979
489	0.979
489.5	0.977
490	0.975
490.5	0.971
491	0.968
491.5	0.968
492	0.966
492.5	0.967
493	0.968
493.5	0.966
494	0.965
494.5	0.962
495	0.961
495.5	0.962
496	0.965
496.5	0.963
497	0.961
497.5	0.96
498	0.96
498.5	0.961
499	0.963
499.5	0.963
500	0.962
500.5	0.963
501	0.962
501.5	0.961
502	0.957
502.5	0.951
503	0.947
503.5	0.943
504	0.944
504.5	0.939
505	0.934
505.5	0.931
506	0.934
506.5	0.937
507	0.939
507.5	0.938
508	0.936
508.5	0.932
509	0.933
509.5	0.929
510	0.928
510.5	0.934
511	0.941
511.5	0.946
512	0.949
512.5	0.951
513	0.947
513.5	0.94
514	0.933
514.5	0.927
515	0.927
515.5	0.931
516	0.927
516.5	0.928
517	0.93
517.5	0.932
518	0.928
518.5	0.925
519	0.922
519.5	0.921
520	0.925
520.5	0.927
521	0.925
521.5	0.926
522	0.928
522.5	0.929
523	0.924
523.5	0.919
524	0.915
524.5	0.913
525	0.913
525.5	0.912
526	0.913
526.5	0.915
527	0.918
527.5	0.918
528	0.914
528.5	0.911
529	0.908
529.5	0.909
530	0.908
530.5	0.911
531	0.915
531.5	0.919
532	0.919
532.5	0.915
533	0.91
533.5	0.904
534	0.9
534.5	0.9
535	0.897
535.5	0.899
536	0.898
536.5	0.902
537	0.904
537.5	0.899
538	0.894
538.5	0.89
539	0.888
539.5	0.885
540	0.882
540.5	0.884
541	0.886
541.5	0.892
542	0.894
542.5	0.893
543	0.892
543.5	0.888
544	0.885
544.5	0.88
545	0.88
545.5	0.884
546	0.884
546.5	0.88
547	0.877
547.5	0.874
548	0.875
548.5	0.869
549	0.863
549.5	0.861
550	0.861
550.5	0.861
551	0.862
551.5	0.859
552	0.859
552.5	0.863
553	0.861
553.5	0.858
554	0.855
554.5	0.853
555	0.855
555.5	0.85
556	0.847
556.5	0.847
557	0.844
557.5	0.845
558	0.846
558.5	0.849
559	0.855
559.5	0.854
560	0.857
560.5	0.853
561	0.852
561.5	0.853
562	0.851
562.5	0.849
563	0.852
563.5	0.849
564	0.848
564.5	0.841
565	0.842
565.5	0.839
566	0.838
566.5	0.836
567	0.836
567.5	0.834
568	0.833
568.5	0.835
569	0.833
569.5	0.835
570	0.838
570.5	0.84
571	0.839
571.5	0.84
572	0.843
572.5	0.84
573	0.843
573.5	0.851
574	0.847
574.5	0.846
575	0.843
575.5	0.838
576	0.836
576.5	0.839
577	0.84
577.5	0.838
578	0.837
578.5	0.838
579	0.83
579.5	0.832
580	0.83
580.5	0.83
581	0.831
581.5	0.833
582	0.834
582.5	0.833
583	0.835
583.5	0.834
584	0.836
584.5	0.843
585	0.843
585.5	0.837
586	0.828
586.5	0.82
587	0.812
587.5	0.808
588	0.808
588.5	0.812
589	0.819
589.5	0.825
590	0.826
590.5	0.827
591	0.827
591.5	0.824
592	0.823
592.5	0.826
593	0.826
593.5	0.829
594	0.828
594.5	0.824
595	0.827
595.5	0.831
596	0.831
596.5	0.831
597	0.835
597.5	0.834
598	0.832
598.5	0.833
599	0.828
599.5	0.826
600	0.826
600.5	0.827
601	0.826
601.5	0.828
602	0.834
602.5	0.834
603	0.827
603.5	0.822
604	0.819
604.5	0.818
605	0.818
605.5	0.817
606	0.818
606.5	0.821
607	0.829
607.5	0.831
608	0.825
608.5	0.826
609	0.829
609.5	0.831
610	0.837
610.5	0.841
611	0.846
611.5	0.845
612	0.844
612.5	0.843
613	0.838
613.5	0.834
614	0.828
614.5	0.824
615	0.824
615.5	0.827
616	0.827
616.5	0.829
617	0.832
617.5	0.838
618	0.842
618.5	0.842
619	0.843
619.5	0.843
620	0.839
620.5	0.835
621	0.831
621.5	0.834
622	0.835
622.5	0.84
623	0.836
623.5	0.836
624	0.834
624.5	0.832
625	0.833
625.5	0.832
626	0.835
626.5	0.843
627	0.845
627.5	0.849
628	0.846
628.5	0.847
629	0.848
629.5	0.845
630	0.845
630.5	0.852
631	0.851
631.5	0.855
632	0.855
632.5	0.852
633	0.85
633.5	0.849
634	0.847
634.5	0.84
635	0.836
635.5	0.837
636	0.831
636.5	0.832
637	0.831
637.5	0.828
638	0.828
638.5	0.831
639	0.837
639.5	0.844
640	0.846
640.5	0.842
641	0.836
641.5	0.832
642	0.826
642.5	0.823
643	0.825
643.5	0.829
644	0.834
644.5	0.842
645	0.84
645.5	0.836
646	0.832
646.5	0.828
647	0.825
647.5	0.827
648	0.831
648.5	0.833
649	0.834
649.5	0.829
650	0.825
650.5	0.821
651	0.815
651.5	0.808
652	0.807
652.5	0.804
653	0.802
653.5	0.808
654	0.806
654.5	0.802
655	0.804
655.5	0.807
656	0.813
656.5	0.812
657	0.817
657.5	0.823
658	0.826
658.5	0.832
659	0.827
659.5	0.822
660	0.819
660.5	0.815
661	0.817
661.5	0.814
662	0.813
662.5	0.813
663	0.813
663.5	0.811
664	0.806
664.5	0.806
665	0.811
665.5	0.813
666	0.817
666.5	0.822
667	0.826
667.5	0.823
668	0.821
668.5	0.818
669	0.821
669.5	0.827
670	0.835
670.5	0.84
671	0.843
671.5	0.846
672	0.847
672.5	0.844
673	0.841
673.5	0.836
674	0.835
674.5	0.84
675	0.84
675.5	0.837
676	0.833
676.5	0.835
677	0.832
677.5	0.832
678	0.833
678.5	0.832
679	0.837
679.5	0.846
680	0.854
680.5	0.865
681	0.871
681.5	0.882
682	0.885
682.5	0.882
683	0.876
683.5	0.869
684	0.863
684.5	0.857
685	0.856
685.5	0.863
686	0.864
686.5	0.866
687	0.869
687.5	0.871
688	0.871
688.5	0.871
689	0.867
689.5	0.865
690	0.865
690.5	0.867
691	0.857
691.5	0.842
692	0.835
692.5	0.832
693	0.826
693.5	0.826
694	0.827
694.5	0.831
695	0.835
695.5	0.839
696	0.831
696.5	0.82
697	0.815
697.5	0.809
698	0.804
698.5	0.805
699	0.81
699.5	0.809
700	0.8
700.5	0.798
701	0.801
701.5	0.804
702	0.805
702.5	0.806
703	0.802
703.5	0.8
704	0.801
704.5	0.795
705	0.778
705.5	0.768
706	0.761
706.5	0.76
707	0.756
707.5	0.754
708	0.74
708.5	0.739
709	0.744
709.5	0.754
710	0.764
710.5	0.764
711	0.767
711.5	0.776
712	0.784
712.5	0.779
713	0.777
713.5	0.775
714	0.772
714.5	0.777
715	0.776
715.5	0.767
716	0.762
716.5	0.76
717	0.748
717.5	0.733
718	0.731
718.5	0.73
719	0.729
719.5	0.742
720	0.751
720.5	0.761
721	0.768
721.5	0.774
722	0.764
722.5	0.747
723	0.741
723.5	0.734
724	0.728
724.5	0.728
725	0.727
725.5	0.723
726	0.723
726.5	0.723
727	0.723
727.5	0.715
728	0.718
728.5	0.716
729	0.72
729.5	0.724
730	0.727
730.5	0.73
731	0.731
731.5	0.734
732	0.74
732.5	0.738
733	0.731
733.5	0.722
734	0.719
734.5	0.72
735	0.715
735.5	0.712
736	0.711
736.5	0.718
737	0.718
737.5	0.713
738	0.71
738.5	0.716
739	0.724
739.5	0.732
740	0.726
740.5	0.725
741	0.725
741.5	0.72
742	0.709
742.5	0.705
743	0.711
743.5	0.713
744	0.709
744.5	0.711
745	0.708
745.5	0.72
746	0.721
746.5	0.715
747	0.715
747.5	0.72
748	0.724
748.5	0.717
749	0.706
749.5	0.707
750	0.698
750.5	0.699
751	0.693
751.5	0.693
752	0.692
752.5	0.694
753	0.693
753.5	0.691
754	0.687
754.5	0.69
755	0.686
755.5	0.689
756	0.695
756.5	0.699
757	0.697
757.5	0.697
758	0.696
758.5	0.699
759	0.699
759.5	0.701
760	0.703
760.5	0.704
761	0.701
761.5	0.699
762	0.698
762.5	0.698
763	0.697
763.5	0.704
764	0.704
764.5	0.705
765	0.704
765.5	0.709
766	0.709
766.5	0.709
767	0.706
767.5	0.696
768	0.687
768.5	0.684
769	0.679
769.5	0.668
770	0.659
770.5	0.666
771	0.667
771.5	0.666
772	0.668
772.5	0.668
773	0.677
773.5	0.689
774	0.695
774.5	0.692
775	0.689
775.5	0.697
776	0.696
776.5	0.69
777	0.685
777.5	0.687
778	0.691
778.5	0.692
779	0.691
779.5	0.688
780	0.685
780.5	0.688
781	0.68
781.5	0.674
782	0.666
782.5	0.664
783	0.664
783.5	0.66
784	0.661
784.5	0.664
785	0.671
785.5	0.675
786	0.67
786.5	0.676
787	0.672
787.5	0.67
788	0.664
788.5	0.649
789	0.64
789.5	0.637
790	0.634
790.5	0.632
791	0.633
791.5	0.646
792	0.652
792.5	0.655
793	0.655
793.5	0.65
794	0.646
794.5	0.649
795	0.655
795.5	0.656
796	0.664
796.5	0.672
797	0.672
797.5	0.673
798	0.664
798.5	0.651
799	0.642
799.5	0.639
800	0.639
800.5	0.64
801	0.642
801.5	0.653
802	0.657
802.5	0.671
803	0.671
803.5	0.668
804	0.666
804.5	0.665
805	0.665
805.5	0.662
806	0.652
806.5	0.645
807	0.639
807.5	0.641
808	0.627
808.5	0.62
809	0.614
809.5	0.617
810	0.619
810.5	0.623
811	0.622
811.5	0.627
812	0.635
812.5	0.645
813	0.65
813.5	0.65
814	0.64
814.5	0.63
815	0.622
815.5	0.619
816	0.62
816.5	0.634
817	0.639
817.5	0.653
818	0.662
818.5	0.655
819	0.645
819.5	0.633
820	0.621
820.5	0.608
821	0.597
821.5	0.6
822	0.607
822.5	0.625
823	0.65
823.5	0.681
824	0.706
824.5	0.717
825	0.718
825.5	0.705
826	0.679
826.5	0.664
827	0.647
827.5	0.639
828	0.638
828.5	0.647
829	0.645
829.5	0.643
830	0.638
830.5	0.635
831	0.631
831.5	0.63
832	0.621
832.5	0.627
833	0.626
833.5	0.621
834	0.612
834.5	0.607
835	0.605
835.5	0.61
836	0.615
836.5	0.626
837	0.637
837.5	0.655
838	0.666
838.5	0.67
839	0.67
839.5	0.667
840	0.661
840.5	0.647
841	0.629
841.5	0.628
842	0.613
842.5	0.601
843	0.592
843.5	0.589
844	0.585
844.5	0.579
845	0.581
845.5	0.581
846	0.584
846.5	0.59
847	0.578
847.5	0.585
848	0.588
848.5	0.599
849	0.6
849.5	0.598
850	0.595
